# Wavelength(nm)  Flambda(ergs/cm^s/s/nm)
270.50 0.6454613
271.50 0.592459
272.50 0.6020953
273.50 0.6546916
274.50 0.5235238
275.50 0.5666549
276.50 0.6180682
277.50 0.6578548
278.50 0.5996539
279.50 0.2912164
280.50 0.3647993
281.50 0.6953741
282.50 0.7176412
283.50 0.7027148
284.50 0.6693801
285.50 0.6000171
286.50 0.6965844
287.50 0.6948861
288.50 0.7088719
289.50 0.6914379
291.00 0.7660589
293.00 0.7424578
295.00 0.7350941
297.00 0.7456636
299.00 0.7561891
301.00 0.7635229
303.00 0.7683138
305.00 0.7765301
307.00 0.7862923
309.00 0.7928148
311.00 0.7830718
313.00 0.7862154
315.00 0.8001168
317.00 0.7988495
319.00 0.7573776
321.00 0.7803967
323.00 0.7506206
325.00 0.7821423
327.00 0.8089171
329.00 0.8134111
331.00 0.8254896
333.00 0.8127876
335.00 0.8075206
337.00 0.7985885
339.00 0.7975812
341.00 0.796854
343.00 0.8062958
345.00 0.8014484
347.00 0.7985132
349.00 0.8031596
351.00 0.8125218
353.00 0.8019487
355.00 0.823617
357.00 0.7931806
359.00 0.784262
361.00 0.790679
363.00 0.7993114
364.00 0.7963374
365.00 0.8253716
367.00 0.7991971
369.00 0.7358385
371.00 0.7775521
373.00 0.7666122
375.00 0.8825168
377.00 0.9126185
379.00 1.012138
381.00 1.11288
383.00 0.9355134
385.00 1.175059
387.00 1.238084
389.00 0.9238247
391.00 1.237944
393.00 1.055429
395.00 1.223538
397.00 0.8587037
399.00 1.242053
401.00 1.310935
403.00 1.310682
405.00 1.301355
407.00 1.260639
409.00 1.145808
411.00 0.9650077
413.00 1.245856
415.00 1.268738
417.00 1.27707
419.00 1.255542
421.00 1.254961
423.00 1.22921
425.00 1.237045
427.00 1.226476
429.00 1.219411
431.00 1.166299
433.00 1.044195
435.00 0.9331307
437.00 1.183389
439.00 1.191808
441.00 1.18428
443.00 1.185679
445.00 1.179997
447.00 1.173463
449.00 1.171412
451.00 1.175508
453.00 1.154345
455.00 1.144657
457.00 1.156979
459.00 1.143266
461.00 1.143731
463.00 1.130846
465.00 1.128185
467.00 1.125805
469.00 1.111698
471.00 1.088065
473.00 1.102887
475.00 1.096828
477.00 1.089042
479.00 1.078585
481.00 1.066701
483.00 1.041332
485.00 0.9229047
487.00 0.7862854
489.00 1.002055
491.00 1.02751
493.00 1.016335
495.00 1.01922
497.00 1.02392
499.00 1.006278
501.00 0.9903864
503.00 1.001666
505.00 0.9897247
507.00 0.9904416
509.00 0.9823819
511.00 0.9787513
513.00 0.9690138
515.00 0.9554164
517.00 0.9331951
519.00 0.9325131
521.00 0.9335367
523.00 0.9278996
525.00 0.9369889
527.00 0.9100115
529.00 0.9214708
531.00 0.9162015
533.00 0.8984528
535.00 0.9045027
537.00 0.8936448
539.00 0.8887909
541.00 0.8776961
543.00 0.8768186
545.00 0.8725288
547.00 0.8686297
549.00 0.8663667
551.00 0.8615299
553.00 0.8547664
555.00 0.8518493
557.00 0.8407836
559.00 0.8356469
561.00 0.8319522
563.00 0.8297164
565.00 0.8247033
567.00 0.8166902
569.00 0.8138013
571.00 0.8072775
573.00 0.8052815
575.00 0.7985487
577.00 0.7941552
579.00 0.7887233
581.00 0.7840174
583.00 0.7792689
585.00 0.7733326
587.00 0.7681593
589.00 0.7556899
591.00 0.7583148
593.00 0.7535515
595.00 0.749048
597.00 0.7440801
599.00 0.7389934
601.00 0.7335402
603.00 0.7285164
605.00 0.725315
607.00 0.7207889
609.00 0.7155336
611.00 0.710574
613.00 0.7022516
615.00 0.6988881
617.00 0.6941664
619.00 0.6928377
621.00 0.6883037
623.00 0.6825703
625.00 0.6752351
627.00 0.675232
629.00 0.6709447
631.00 0.6650691
633.00 0.6611743
635.00 0.6568663
637.00 0.6527481
639.00 0.6492225
641.00 0.6423873
643.00 0.6387986
645.00 0.6322688
647.00 0.6292308
649.00 0.6213831
651.00 0.616254
653.00 0.6021194
655.00 0.545987
656.10 0.4475753
659.00 0.5782138
661.00 0.5947107
663.00 0.5963787
665.00 0.5947413
667.00 0.5916207
669.00 0.589201
671.00 0.5859284
673.00 0.5825176
675.00 0.5785078
677.00 0.5752266
679.00 0.5715486
681.00 0.5678059
683.00 0.5642267
685.00 0.5602616
687.00 0.5572281
689.00 0.5537753
691.00 0.5502268
693.00 0.5467727
695.00 0.5433805
697.00 0.5398939
699.00 0.5366237
701.00 0.5324609
703.00 0.5295272
705.00 0.526527
707.00 0.52319
709.00 0.5198824
711.00 0.5152906
713.00 0.5126709
715.00 0.5096593
717.00 0.5063798
719.00 0.5028079
721.00 0.4999933
723.00 0.4972021
725.00 0.4942904
727.00 0.4913462
729.00 0.4874901
731.00 0.4849109
733.00 0.4817911
735.00 0.4793681
737.00 0.4764645
739.00 0.4727565
741.00 0.467021
743.00 0.4667508
745.00 0.4642754
747.00 0.46136
749.00 0.4582272
751.00 0.455549
753.00 0.4532654
755.00 0.4507349
757.00 0.4477509
759.00 0.444949
761.00 0.4422227
763.00 0.4396224
765.00 0.4368627
767.00 0.4332028
769.00 0.4314625
771.00 0.4282373
773.00 0.4264533
775.00 0.4233761
777.00 0.417951
779.00 0.4188653
781.00 0.4162282
783.00 0.4130957
785.00 0.4106507
787.00 0.4085176
789.00 0.4060129
791.00 0.4036248
793.00 0.400224
795.00 0.3980696
797.00 0.3966681
799.00 0.3940704
801.00 0.391282
803.00 0.3893353
805.00 0.386728
807.00 0.38486
809.00 0.3821988
811.00 0.380339
813.00 0.3781504
815.00 0.3758653
817.00 0.3736205
819.00 0.3694141
821.00 0.3687578
823.00 0.3660324
825.00 0.3643706
827.00 0.3630956
829.00 0.3608408
831.00 0.3582541
833.00 0.3540575
835.00 0.3533804
837.00 0.3509184
839.00 0.3471686
841.00 0.3454553
843.00 0.3430328
845.00 0.3398897
847.00 0.3360786
849.00 0.336862
851.00 0.3255945
853.00 0.3341247
855.00 0.3094927
857.00 0.3334366
859.00 0.3229722
861.00 0.3188486
863.00 0.3301127
865.00 0.3231846
867.00 0.2935194
869.00 0.3211951
871.00 0.3248717
873.00 0.3189512
875.00 0.2900878
877.00 0.3119296
879.00 0.3181652
881.00 0.3158671
883.00 0.3130641
885.00 0.301231
887.00 0.2762714
889.00 0.3058367
891.00 0.3080566
893.00 0.3069999
895.00 0.3064392
897.00 0.3037618
899.00 0.2981561
901.00 0.2646307
903.00 0.2812569
905.00 0.2949893
907.00 0.2932314
909.00 0.2901533
911.00 0.292207
913.00 0.2922131
915.00 0.2904866
917.00 0.2882522
919.00 0.2850163
921.00 0.2758125
923.00 0.2398064
925.00 0.2704526
927.00 0.2772392
929.00 0.278756
931.00 0.2779425
933.00 0.2768561
935.00 0.2755177
937.00 0.2741022
939.00 0.2724568
941.00 0.2673816
943.00 0.2692343
945.00 0.2675045
947.00 0.2658544
949.00 0.2637635
951.00 0.2602868
953.00 0.2510068
955.00 0.2180339
957.00 0.2503459
959.00 0.2551914
961.00 0.2546366
963.00 0.2531408
965.00 0.2535019
967.00 0.2509218
969.00 0.2508671
971.00 0.2498188
973.00 0.2484741
975.00 0.2467576
977.00 0.2457484
979.00 0.2444306
981.00 0.2431214
983.00 0.2418521
985.00 0.2404045
987.00 0.2390441
989.00 0.2373996
991.00 0.236427
993.00 0.2352309
995.00 0.23389
997.00 0.2322696
999.00 0.2304336
1002.50 0.2196263
1007.50 0.2109722
1012.50 0.2223285
1017.50 0.2203965
1022.50 0.2178135
1027.50 0.2150559
1032.50 0.212129
1037.50 0.2094726
1042.50 0.2068018
1047.50 0.2034988
1052.50 0.2014337
1057.50 0.1988993
1062.50 0.1960563
1067.50 0.1918015
1072.50 0.1905812
1077.50 0.1884268
1082.50 0.1856475
1087.50 0.1824264
1092.50 0.1642414
1097.50 0.1737568
1102.50 0.1767267
1107.50 0.1753191
1112.50 0.1731861
1117.50 0.1710358
1122.50 0.1690605
1127.50 0.1663422
1132.50 0.1643356
1137.50 0.1627892
1142.50 0.1606046
1147.50 0.1590591
1152.50 0.1571823
1157.50 0.1552418
1162.50 0.1529047
1167.50 0.1507787
1172.50 0.1498247
1177.50 0.1467598
1182.50 0.1454999
1187.50 0.143785
1192.50 0.1429107
1197.50 0.1403206
1202.50 0.1393022
1207.50 0.137344
1212.50 0.1362034
1217.50 0.1347613
1222.50 0.1331867
1227.50 0.1315633
1232.50 0.1301008
1237.50 0.128628
1242.50 0.1271942
1247.50 0.1257502
1252.50 0.124277
1257.50 0.1227183
1262.50 0.1213697
1267.50 0.1199352
1272.50 0.1181653
1277.50 0.1145986
1282.50 0.1014263
1287.50 0.1126707
1292.50 0.1130286
1297.50 0.1122041
1302.50 0.1110508
1307.50 0.1098678
1312.50 0.1085594
1317.50 0.107285
1322.50 0.1062857
1327.50 0.1050927
1332.50 0.1039656
1337.50 0.1028104
1342.50 0.1017196
1347.50 0.1006171
1352.50 0.09948699
1357.50 0.09836255
1362.50 0.09739
1367.50 0.0963161
1372.50 0.09501505
1377.50 0.09421528
1382.50 0.09321928
1387.50 0.09230577
1392.50 0.09125505
1397.50 0.09033287
1402.50 0.08936024
1407.50 0.08845233
1412.50 0.08744162
1417.50 0.08660057
1422.50 0.08559777
1427.50 0.08465865
1432.50 0.0838996
1437.50 0.08305418
1442.50 0.08146445
1447.50 0.08131301
1452.50 0.08006774
1457.00 0.07963789
1462.00 0.07883296
1467.50 0.07802601
1472.50 0.0771422
1477.50 0.07627546
1482.50 0.07559023
1487.50 0.07446932
1492.50 0.07413372
1497.50 0.07327625
1502.50 0.07213451
1507.50 0.0715174
1512.50 0.07095302
1517.50 0.07019144
1522.50 0.06935372
1527.50 0.0685901
1532.50 0.06776429
1537.50 0.06715197
1542.50 0.06609599
1547.50 0.06573886
1552.50 0.06496561
1557.50 0.06376562
1562.50 0.06409964
1567.50 0.06261081
1572.50 0.06154222
1577.50 0.06208625
1582.50 0.06144156
1587.50 0.05852912
1592.50 0.05982768
1597.50 0.06035224
1605.00 0.05861247
1615.00 0.0561127
1625.00 0.05715001
1635.00 0.05479119
1645.00 0.05222555
1655.00 0.05374811
1665.00 0.05267781
1675.00 0.05016507
1685.00 0.04752852
1695.00 0.04941352
1705.00 0.04853877
1715.00 0.04753123
1725.00 0.04616807
1735.00 0.04183132
1745.00 0.04388031
1755.00 0.04369366
1765.00 0.042891
1775.00 0.04208398
1785.00 0.04124449
1795.00 0.04040278
1805.00 0.0393447
1815.00 0.03565145
1825.00 0.03712014
1835.00 0.03720274
1845.00 0.03654486
1855.00 0.03579155
1865.00 0.03481198
1875.00 0.0311677
1885.00 0.03338305
1895.00 0.0330451
1905.00 0.03260139
1915.00 0.03198044
1925.00 0.0313197
1935.00 0.03043116
1945.00 0.02743779
1955.00 0.02932072
1965.00 0.02907813
1975.00 0.02855933
1985.00 0.02807399
1995.00 0.02756395
2005.00 0.02707279
2015.00 0.02659185
2025.00 0.02610472
2035.00 0.0256266
2045.00 0.02519478
2055.00 0.02474835
2065.00 0.02428884
2075.00 0.02388012
2085.00 0.0234656
2095.00 0.02304724
2105.00 0.02265448
2115.00 0.02225158
2125.00 0.02186659
2135.00 0.02149775
2145.00 0.0211063
2155.00 0.02058084
2165.00 0.01858534
2175.00 0.0197736
2185.00 0.01968781
2195.00 0.01942085
2205.00 0.01908066
2215.00 0.01876516
2225.00 0.01847042
2235.00 0.01816718
2245.00 0.01786892
2255.00 0.01756424
2265.00 0.01728893
2275.00 0.0170102
2285.00 0.01673566
2295.00 0.01646985
