# Wavelength(nm)  Flambda(ergs/cm^s/s/nm)
270.50 0.5186599
271.50 0.4466336
272.50 0.4536496
273.50 0.4987664
274.50 0.3524022
275.50 0.4146804
276.50 0.486206
277.50 0.5240766
278.50 0.4203759
279.50 0.1490175
280.50 0.2011535
281.50 0.5488597
282.50 0.6080473
283.50 0.5904704
284.50 0.5413552
285.50 0.3803509
286.50 0.5870202
287.50 0.6065332
288.50 0.5929473
289.50 0.5981223
291.00 0.6847818
293.00 0.6530145
295.00 0.6440465
297.00 0.6630255
299.00 0.6711081
301.00 0.6868544
303.00 0.6898091
305.00 0.7107697
307.00 0.7203728
309.00 0.722478
311.00 0.7196686
313.00 0.7239308
315.00 0.7239256
317.00 0.7404342
319.00 0.6927836
321.00 0.7287832
323.00 0.6864038
325.00 0.7411141
327.00 0.7888119
329.00 0.7885228
331.00 0.80541
333.00 0.7942109
335.00 0.7911409
337.00 0.752563
339.00 0.777708
341.00 0.7698144
343.00 0.7903597
345.00 0.7866762
347.00 0.7907587
349.00 0.8051292
351.00 0.8150895
353.00 0.7952807
355.00 0.8406448
357.00 0.7851597
359.00 0.7671182
361.00 0.7896955
363.00 0.8008547
364.00 0.8053164
365.00 0.8478149
367.00 0.8274597
369.00 0.7770393
371.00 0.8123068
373.00 0.7768103
375.00 0.8596216
377.00 0.9043285
379.00 0.963654
381.00 1.027638
383.00 0.858533
385.00 1.05866
387.00 1.076467
389.00 0.9223846
391.00 1.077712
393.00 0.8243527
395.00 1.056586
397.00 0.8072228
399.00 1.115769
401.00 1.144211
403.00 1.143427
405.00 1.131645
407.00 1.111191
409.00 1.101096
411.00 0.9850426
413.00 1.127206
415.00 1.132937
417.00 1.138993
419.00 1.11795
421.00 1.11758
423.00 1.092735
425.00 1.107009
427.00 1.098114
429.00 1.084033
431.00 1.027252
433.00 1.042658
435.00 0.9639975
437.00 1.111118
439.00 1.096652
441.00 1.094686
443.00 1.103105
445.00 1.094976
447.00 1.094359
449.00 1.099479
451.00 1.115476
453.00 1.086291
455.00 1.084855
457.00 1.106173
459.00 1.090132
461.00 1.093722
463.00 1.08519
465.00 1.083842
467.00 1.089117
469.00 1.08071
471.00 1.060005
473.00 1.073824
475.00 1.071993
477.00 1.069167
479.00 1.06091
481.00 1.057415
483.00 1.047959
485.00 0.9852578
487.00 0.8646949
489.00 1.018088
491.00 1.026546
493.00 1.01052
495.00 1.016503
497.00 1.024671
499.00 0.9992186
501.00 0.9824341
503.00 1.00422
505.00 0.9926593
507.00 0.9991205
509.00 0.9888752
511.00 0.9878423
513.00 0.9794908
515.00 0.9632378
517.00 0.9365585
519.00 0.937696
521.00 0.9452266
523.00 0.9460431
525.00 0.961403
527.00 0.9255339
529.00 0.947008
531.00 0.946617
533.00 0.9230048
535.00 0.9348699
537.00 0.9257549
539.00 0.9220771
541.00 0.9088746
543.00 0.9137919
545.00 0.9111319
547.00 0.9070681
549.00 0.9071806
551.00 0.9033205
553.00 0.8999007
555.00 0.8993433
557.00 0.8854127
559.00 0.8814853
561.00 0.8789396
563.00 0.8812125
565.00 0.8777222
567.00 0.8686677
569.00 0.8685866
571.00 0.8609045
573.00 0.8638779
575.00 0.8569725
577.00 0.8536666
579.00 0.8487475
581.00 0.8455027
583.00 0.8422824
585.00 0.8357306
587.00 0.8314944
589.00 0.8165018
591.00 0.8232792
593.00 0.8192972
595.00 0.8160552
597.00 0.8114373
599.00 0.807141
601.00 0.8017778
603.00 0.79688
605.00 0.7962582
607.00 0.7916974
609.00 0.7867079
611.00 0.7819004
613.00 0.7700962
615.00 0.7704423
617.00 0.7640784
619.00 0.7663814
621.00 0.7624886
623.00 0.7561214
625.00 0.7471357
627.00 0.7511407
629.00 0.7473812
631.00 0.7398919
633.00 0.7369062
635.00 0.7348102
637.00 0.7308183
639.00 0.7275348
641.00 0.7185663
643.00 0.7163978
645.00 0.7119019
647.00 0.7083424
649.00 0.7000713
651.00 0.6991343
653.00 0.6897644
655.00 0.6421474
656.10 0.5358009
659.00 0.6684658
661.00 0.6806546
663.00 0.6803597
665.00 0.6780235
667.00 0.6743564
669.00 0.6729521
671.00 0.6686692
673.00 0.6658032
675.00 0.6618635
677.00 0.6586669
679.00 0.6551715
681.00 0.6514365
683.00 0.6483226
685.00 0.6437442
687.00 0.6412183
689.00 0.6382372
691.00 0.6346004
693.00 0.6314105
695.00 0.6280402
697.00 0.6247495
699.00 0.6214861
701.00 0.6167256
703.00 0.6144338
705.00 0.6116057
707.00 0.6082001
709.00 0.6049226
711.00 0.6012773
713.00 0.5972211
715.00 0.5942755
717.00 0.5912562
719.00 0.5868123
721.00 0.5843298
723.00 0.5823432
725.00 0.5797045
727.00 0.5766138
729.00 0.5719511
731.00 0.569947
733.00 0.5667017
735.00 0.5646385
737.00 0.5618538
739.00 0.5572168
741.00 0.5499844
743.00 0.5511882
745.00 0.5490424
747.00 0.5466879
749.00 0.5429712
751.00 0.5398618
753.00 0.5380986
755.00 0.5356895
757.00 0.5323834
759.00 0.5292779
761.00 0.526629
763.00 0.524129
765.00 0.5213067
767.00 0.5160878
769.00 0.515771
771.00 0.5117967
773.00 0.5104471
775.00 0.5066104
777.00 0.5031787
779.00 0.5026964
781.00 0.4999614
783.00 0.4960667
785.00 0.4936232
787.00 0.4922462
789.00 0.4896736
791.00 0.4868813
793.00 0.4821258
795.00 0.4801376
797.00 0.4796175
799.00 0.4771411
801.00 0.4730882
803.00 0.4717412
805.00 0.4684369
807.00 0.467153
809.00 0.463778
811.00 0.4622904
813.00 0.4600565
815.00 0.4575759
817.00 0.4551513
819.00 0.4494325
821.00 0.4493565
823.00 0.4457009
825.00 0.4449364
827.00 0.4435899
829.00 0.4411615
831.00 0.4381368
833.00 0.4330131
835.00 0.4335553
837.00 0.4313077
839.00 0.4262745
841.00 0.4262968
843.00 0.4235035
845.00 0.4208718
847.00 0.4169725
849.00 0.4164304
851.00 0.4036851
853.00 0.4128428
855.00 0.3823628
857.00 0.4113094
859.00 0.404558
861.00 0.4009632
863.00 0.4058782
865.00 0.4012341
867.00 0.3709549
869.00 0.3958629
871.00 0.3979301
873.00 0.3946348
875.00 0.377833
877.00 0.38955
879.00 0.3902997
881.00 0.3862781
883.00 0.3844662
885.00 0.3796704
887.00 0.3631096
889.00 0.3797362
891.00 0.3789769
893.00 0.3764359
895.00 0.3753476
897.00 0.3737068
899.00 0.3706556
901.00 0.3483149
903.00 0.3604596
905.00 0.3658181
907.00 0.3621126
909.00 0.3573182
911.00 0.3593307
913.00 0.3592558
915.00 0.3575677
917.00 0.3557128
919.00 0.3537819
921.00 0.3478617
923.00 0.3237615
925.00 0.3431381
927.00 0.3457262
929.00 0.3452808
931.00 0.3437413
933.00 0.341839
935.00 0.3400925
937.00 0.3385285
939.00 0.3368897
941.00 0.3307225
943.00 0.3332797
945.00 0.3314232
947.00 0.3303588
949.00 0.3288294
951.00 0.3263986
953.00 0.3217314
955.00 0.2973637
957.00 0.3193746
959.00 0.3203785
961.00 0.3185328
963.00 0.316188
965.00 0.3156831
967.00 0.3130437
969.00 0.3129226
971.00 0.3115819
973.00 0.3100914
975.00 0.3079013
977.00 0.3069036
979.00 0.3054686
981.00 0.3039909
983.00 0.3026259
985.00 0.3010895
987.00 0.2994092
989.00 0.297689
991.00 0.296514
993.00 0.2953715
995.00 0.2940339
997.00 0.2926797
999.00 0.2911836
1002.50 0.2845086
1007.50 0.2761086
1012.50 0.281644
1017.50 0.2783283
1022.50 0.2753741
1027.50 0.2722986
1032.50 0.2687778
1037.50 0.2658222
1042.50 0.262865
1047.50 0.2590874
1052.50 0.2567443
1057.50 0.2536748
1062.50 0.2502092
1067.50 0.2453514
1072.50 0.2442628
1077.50 0.2413345
1082.50 0.2383007
1087.50 0.2358188
1092.50 0.2225791
1097.50 0.2286185
1102.50 0.2288911
1107.50 0.2266256
1112.50 0.2239476
1117.50 0.2213682
1122.50 0.2191826
1127.50 0.2159467
1132.50 0.2138494
1137.50 0.2118193
1142.50 0.209013
1147.50 0.2074609
1152.50 0.2052324
1157.50 0.2028857
1162.50 0.1999617
1167.50 0.1978497
1172.50 0.1965472
1177.50 0.193045
1182.50 0.1912374
1187.50 0.1891523
1192.50 0.1883595
1197.50 0.1846832
1202.50 0.1837375
1207.50 0.1814658
1212.50 0.1803288
1217.50 0.1786823
1222.50 0.176806
1227.50 0.1747556
1232.50 0.1731433
1237.50 0.1713395
1242.50 0.1695912
1247.50 0.1679137
1252.50 0.1661461
1257.50 0.1643381
1262.50 0.1626473
1267.50 0.1610558
1272.50 0.1594073
1277.50 0.1565556
1282.50 0.144518
1287.50 0.1537265
1292.50 0.1530773
1297.50 0.151722
1302.50 0.150162
1307.50 0.1487529
1312.50 0.147013
1317.50 0.1454678
1322.50 0.144427
1327.50 0.1429019
1332.50 0.1415783
1337.50 0.140173
1342.50 0.1388953
1347.50 0.1375502
1352.50 0.1362034
1357.50 0.134748
1362.50 0.1336009
1367.50 0.1322945
1372.50 0.1307904
1377.50 0.1297439
1382.50 0.1285551
1387.50 0.1274331
1392.50 0.1261733
1397.50 0.1250126
1402.50 0.1237484
1407.50 0.1227094
1412.50 0.1213667
1417.50 0.12044
1422.50 0.1190248
1427.50 0.1178151
1432.50 0.1170439
1437.50 0.1160354
1442.50 0.1139798
1447.50 0.1138551
1452.50 0.1121341
1457.00 0.1116272
1462.00 0.1107283
1467.50 0.1096796
1472.50 0.1084777
1477.50 0.1074509
1482.50 0.1066126
1487.50 0.1049605
1492.50 0.104811
1497.50 0.1036781
1502.50 0.101963
1507.50 0.1012504
1512.50 0.1008614
1517.50 0.09993008
1522.50 0.09878255
1527.50 0.09791008
1532.50 0.09690655
1537.50 0.09608296
1542.50 0.09496895
1547.50 0.09434686
1552.50 0.09335481
1557.50 0.09203803
1562.50 0.09204815
1567.50 0.0904356
1572.50 0.0892536
1577.50 0.0889616
1582.50 0.08845517
1587.50 0.08550346
1592.50 0.08654544
1597.50 0.08656704
1605.00 0.08474033
1615.00 0.08203439
1625.00 0.08227961
1635.00 0.07965494
1645.00 0.07680548
1655.00 0.07747613
1665.00 0.0759395
1675.00 0.07314188
1685.00 0.07018264
1695.00 0.07134779
1705.00 0.06991129
1715.00 0.06850675
1725.00 0.06682289
1735.00 0.06232268
1745.00 0.06382413
1755.00 0.06313615
1765.00 0.0618834
1775.00 0.0606968
1785.00 0.05951088
1795.00 0.0583584
1805.00 0.05703464
1815.00 0.05316498
1825.00 0.05424951
1835.00 0.05387858
1845.00 0.05280544
1855.00 0.0518553
1865.00 0.05059369
1875.00 0.04640466
1885.00 0.04865031
1895.00 0.04790809
1905.00 0.04725233
1915.00 0.0463612
1925.00 0.04550348
1935.00 0.04441827
1945.00 0.04119161
1955.00 0.04282693
1965.00 0.04227058
1975.00 0.04146598
1985.00 0.04079264
1995.00 0.04006479
2005.00 0.03937302
2015.00 0.03869234
2025.00 0.03797873
2035.00 0.03727722
2045.00 0.03669028
2055.00 0.03604675
2065.00 0.0353671
2075.00 0.03479683
2085.00 0.03420715
2095.00 0.0335867
2105.00 0.03304354
2115.00 0.03247452
2125.00 0.03192523
2135.00 0.03139628
2145.00 0.03087959
2155.00 0.03024046
2165.00 0.02806238
2175.00 0.02913485
2185.00 0.02882589
2195.00 0.02840736
2205.00 0.02789611
2215.00 0.02746719
2225.00 0.02703226
2235.00 0.02659497
2245.00 0.0261649
2255.00 0.02572714
2265.00 0.02532674
2275.00 0.02492369
2285.00 0.02451618
2295.00 0.02413663
