# Version 2.1 - nm, norm@500 to 1, cut digits, bergeron_He_5500_80.dat_5500
# Wavelength(nm)  Flambda(ergs/cm^s/s/nm)
300.00 0.3153082
300.10 0.3158377
300.20 0.3163689
300.30 0.3168982
300.40 0.3174192
300.50 0.3179394
300.60 0.3184588
300.70 0.3189774
300.80 0.3194953
300.90 0.3200125
301.00 0.3205289
301.10 0.3210445
301.20 0.3215594
301.30 0.3220735
301.40 0.3225869
301.50 0.3230995
301.60 0.3236113
301.70 0.3241224
301.80 0.3246328
301.90 0.3251424
302.00 0.3256513
302.10 0.3261751
302.20 0.3266999
302.30 0.3272239
302.40 0.3277471
302.50 0.3282696
302.60 0.3287913
302.70 0.3293123
302.80 0.3298325
302.90 0.3303519
303.00 0.3308706
303.10 0.3313885
303.20 0.3319057
303.30 0.3324233
303.40 0.3329509
303.50 0.3334777
303.60 0.3340037
303.70 0.3345289
303.80 0.3350534
303.90 0.3355772
304.00 0.3361001
304.10 0.3366223
304.20 0.3371438
304.30 0.3376645
304.40 0.3381844
304.50 0.3387036
304.60 0.3392341
304.70 0.3397652
304.80 0.3402955
304.90 0.340825
305.00 0.3413538
305.10 0.3418818
305.20 0.342409
305.30 0.3429355
305.40 0.3434612
305.50 0.3439862
305.60 0.3445104
305.70 0.3450338
305.80 0.3455565
305.90 0.3460784
306.00 0.3465995
306.10 0.3471199
306.20 0.3476396
306.30 0.3481585
306.40 0.3486912
306.50 0.3492275
306.60 0.3497631
306.70 0.3502978
306.80 0.3508318
306.90 0.3513651
307.00 0.3518975
307.10 0.3524292
307.20 0.3529602
307.30 0.3534903
307.40 0.3540197
307.50 0.3545484
307.60 0.3550762
307.70 0.3556033
307.80 0.3561297
307.90 0.3566553
308.00 0.3571801
308.10 0.3577042
308.20 0.3582275
308.30 0.3587501
308.40 0.3592719
308.50 0.359793
308.60 0.3603133
308.70 0.3608328
308.80 0.3613563
308.90 0.3618923
309.00 0.3624208
309.10 0.3629485
309.20 0.3634755
309.30 0.3640017
309.40 0.3645287
309.50 0.365064
309.60 0.3655985
309.70 0.3661323
309.80 0.3666653
309.90 0.3671976
310.00 0.3677291
310.10 0.3682598
310.20 0.3687897
310.30 0.369319
310.40 0.3698508
310.50 0.3703855
310.60 0.3709195
310.70 0.3714527
310.80 0.3719852
310.90 0.3725169
311.00 0.373045
311.10 0.3735724
311.20 0.374099
311.30 0.3746289
311.40 0.3751692
311.50 0.3757087
311.60 0.3762475
311.70 0.3767856
311.80 0.3773228
311.90 0.3778593
312.00 0.378395
312.10 0.37893
312.20 0.3794484
312.30 0.3799653
312.40 0.380497
312.50 0.3810227
312.60 0.3815578
312.70 0.3820922
312.80 0.3826258
312.90 0.3831651
313.00 0.3837105
313.10 0.3842551
313.20 0.384799
313.30 0.3853397
313.40 0.3858726
313.50 0.3864049
313.60 0.3869363
313.70 0.387467
313.80 0.387997
313.90 0.3885262
314.00 0.3890546
314.10 0.3895913
314.20 0.3901272
314.30 0.3906623
314.40 0.3911967
314.50 0.3917303
314.60 0.3922632
314.70 0.3927953
314.80 0.3933434
314.90 0.3939068
315.00 0.3944354
315.10 0.3949711
315.20 0.3955061
315.30 0.3960402
315.40 0.3965737
315.50 0.3971064
315.60 0.3976383
315.70 0.3981786
315.80 0.3987181
315.90 0.3992569
316.00 0.3997949
316.10 0.4003321
316.20 0.4008686
316.30 0.4014043
316.40 0.4019392
316.50 0.4025006
316.60 0.4030069
316.70 0.4035396
316.80 0.4040715
316.90 0.4046162
317.00 0.4051602
317.10 0.4057034
317.20 0.4062459
317.30 0.406798
317.40 0.4073438
317.50 0.4078734
317.60 0.4084022
317.70 0.4089302
317.80 0.4094576
317.90 0.4100153
318.00 0.4105491
318.10 0.4110847
318.20 0.4116196
318.30 0.4121537
318.40 0.4126905
318.50 0.4132365
318.60 0.4137818
318.70 0.4143263
318.80 0.4148753
318.90 0.4154129
319.00 0.4159551
319.10 0.4164966
319.20 0.4170347
319.30 0.4175647
319.40 0.418094
319.50 0.4186225
319.60 0.4191934
319.70 0.4197346
319.80 0.4202749
319.90 0.4208145
320.00 0.4213513
320.10 0.4218852
320.20 0.4224095
320.30 0.4229507
320.40 0.4234717
320.50 0.4240132
320.60 0.4245561
320.70 0.4251119
320.80 0.4256607
320.90 0.4262017
321.00 0.4267421
321.10 0.4272817
321.20 0.4278038
321.30 0.4283497
321.40 0.4288948
321.50 0.4294391
321.60 0.4299827
321.70 0.4305256
321.80 0.4310542
321.90 0.4315675
322.00 0.4321408
322.10 0.4326819
322.20 0.4332223
322.30 0.4337619
322.40 0.4343008
322.50 0.4348389
322.60 0.4353763
322.70 0.4359129
322.80 0.4364311
322.90 0.4369771
323.00 0.4375223
323.10 0.4380667
323.20 0.4386104
323.30 0.4391534
323.40 0.4396956
323.50 0.440237
323.60 0.4407777
323.70 0.4413176
323.80 0.4418568
323.90 0.4423952
324.00 0.4429266
324.10 0.4434572
324.20 0.443987
324.30 0.4445317
324.40 0.4450957
324.50 0.4456325
324.60 0.4461686
324.70 0.4467039
324.80 0.4472385
324.90 0.4477724
325.00 0.4483055
325.10 0.4488378
325.20 0.4493751
325.30 0.4499235
325.40 0.4504712
325.50 0.4510145
325.60 0.4515525
325.70 0.4520898
325.80 0.4526264
325.90 0.4531682
326.00 0.4537158
326.10 0.4542626
326.20 0.4548087
326.30 0.4553508
326.40 0.4558831
326.50 0.456427
326.60 0.4569702
326.70 0.4575126
326.80 0.4580543
326.90 0.4585952
327.00 0.4591354
327.10 0.4596748
327.20 0.4602135
327.30 0.4607514
327.40 0.4612886
327.50 0.4618251
327.60 0.4623608
327.70 0.4628958
327.80 0.46343
327.90 0.463973
328.00 0.4645177
328.10 0.4650521
328.20 0.4655858
328.30 0.4661188
328.40 0.466651
328.50 0.4671896
328.60 0.4677292
328.70 0.468268
328.80 0.4688072
328.90 0.469349
329.00 0.4698901
329.10 0.4704304
329.20 0.4709699
329.30 0.4715087
329.40 0.4720468
329.50 0.4725842
329.60 0.4731208
329.70 0.4736566
329.80 0.4741917
329.90 0.4747261
330.00 0.4752642
330.10 0.475807
330.20 0.4763491
330.30 0.4768904
330.40 0.4774324
330.50 0.477975
330.60 0.478517
330.70 0.4790582
330.80 0.4795986
330.90 0.4801383
331.00 0.4806773
331.10 0.4812155
331.20 0.481753
331.30 0.4822898
331.40 0.4828258
331.50 0.4833563
331.60 0.4838801
331.70 0.4844033
331.80 0.4849557
331.90 0.4855087
332.00 0.4860609
332.10 0.4866123
332.20 0.487163
332.30 0.487713
332.40 0.4882622
332.50 0.4888106
332.60 0.4893583
332.70 0.4899053
332.80 0.4904515
332.90 0.490997
333.00 0.4915417
333.10 0.4920835
333.20 0.4926219
333.30 0.4931596
333.40 0.4936965
333.50 0.4942327
333.60 0.4947682
333.70 0.495303
333.80 0.495837
333.90 0.4963703
334.00 0.4969028
334.10 0.4974274
334.20 0.4979422
334.30 0.4984564
334.40 0.4989698
334.50 0.4994826
334.60 0.4999946
334.70 0.5005621
334.80 0.5011183
334.90 0.5015603
335.00 0.5020016
335.10 0.5026697
335.20 0.5030967
335.30 0.503741
335.40 0.5041667
335.50 0.5045918
335.60 0.5051976
335.70 0.5058147
335.80 0.5064792
335.90 0.5070885
336.00 0.5076308
336.10 0.5081722
336.20 0.508713
336.30 0.509235
336.40 0.5097342
336.50 0.5102327
336.60 0.5107305
336.70 0.5112277
336.80 0.5117241
336.90 0.5122342
337.00 0.5127609
337.10 0.513287
337.20 0.5138123
337.30 0.5143591
337.40 0.514937
337.50 0.5155141
337.60 0.5160905
337.70 0.5166661
337.80 0.5172409
337.90 0.5177932
338.00 0.5183181
338.10 0.5188423
338.20 0.5193659
338.30 0.5198887
338.40 0.5204032
338.50 0.5208984
338.60 0.521393
338.70 0.5218869
338.80 0.5223802
338.90 0.5228727
339.00 0.5233646
339.10 0.5238559
339.20 0.5243464
339.30 0.5249045
339.40 0.5255599
339.50 0.5261555
339.60 0.5266784
339.70 0.5272006
339.80 0.5277221
339.90 0.5282429
340.00 0.528763
340.10 0.5292824
340.20 0.529801
340.30 0.530319
340.40 0.5308363
340.50 0.5313529
340.60 0.5318688
340.70 0.5323839
340.80 0.5329517
340.90 0.5335952
341.00 0.5341767
341.10 0.5346824
341.20 0.5351876
341.30 0.535692
341.40 0.5361957
341.50 0.5366988
341.60 0.5372012
341.70 0.5377029
341.80 0.5382317
341.90 0.5387937
342.00 0.5393549
342.10 0.5399154
342.20 0.5403001
342.30 0.5407868
342.40 0.5414138
342.50 0.5419544
342.60 0.5424942
342.70 0.5430333
342.80 0.5435717
342.90 0.5441094
343.00 0.5446228
343.10 0.5451068
343.20 0.5455902
343.30 0.5460729
343.40 0.5465739
343.50 0.5471018
343.60 0.5476289
343.70 0.5481553
343.80 0.548681
343.90 0.549206
344.00 0.5497146
344.10 0.5501998
344.20 0.5506845
344.30 0.5511684
344.40 0.5516988
344.50 0.5522961
344.60 0.5529867
344.70 0.5533533
344.80 0.5537193
344.90 0.5545426
345.00 0.5548136
345.10 0.5554065
345.20 0.5560036
345.30 0.5566073
345.40 0.5572102
345.50 0.5577909
345.60 0.5583281
345.70 0.5588404
345.80 0.559352
345.90 0.559863
346.00 0.5603732
346.10 0.5608828
346.20 0.5613855
346.30 0.5618786
346.40 0.562371
346.50 0.5628627
346.60 0.5633538
346.70 0.5638443
346.80 0.564334
346.90 0.5648232
347.00 0.5653116
347.10 0.5657994
347.20 0.5663072
347.30 0.5668439
347.40 0.5673799
347.50 0.5679152
347.60 0.5684497
347.70 0.5689836
347.80 0.5695168
347.90 0.5700492
348.00 0.570581
348.10 0.571112
348.20 0.5716423
348.30 0.572172
348.40 0.5727009
348.50 0.5732291
348.60 0.5737566
348.70 0.5741372
348.80 0.574554
348.90 0.5750894
349.00 0.5756242
349.10 0.5761582
349.20 0.5766916
349.30 0.5772242
349.40 0.5777561
349.50 0.5782873
349.60 0.5788178
349.70 0.5793476
349.80 0.5798768
349.90 0.5804052
350.00 0.5809329
350.10 0.5814599
350.20 0.5819862
350.30 0.5825059
350.40 0.5830162
350.50 0.5835259
350.60 0.5840349
350.70 0.5845432
350.80 0.5850509
350.90 0.5855579
351.00 0.5860642
351.10 0.5865698
351.20 0.5870748
351.30 0.5875791
351.40 0.5880789
351.50 0.5885714
351.60 0.5890632
351.70 0.5895544
351.80 0.5900449
351.90 0.5905347
352.00 0.591024
352.10 0.5915125
352.20 0.5920544
352.30 0.5925958
352.40 0.5931282
352.50 0.5936598
352.60 0.5941907
352.70 0.5947209
352.80 0.5952504
352.90 0.5957793
353.00 0.5963074
353.10 0.5968348
353.20 0.5973616
353.30 0.5978876
353.40 0.598413
353.50 0.5988752
353.60 0.5993211
353.70 0.5997665
353.80 0.6002113
353.90 0.6006882
354.00 0.6012227
354.10 0.6017565
354.20 0.6022896
354.30 0.6028221
354.40 0.6033538
354.50 0.6038848
354.60 0.6044151
354.70 0.6049448
354.80 0.6054388
354.90 0.6058818
355.00 0.6063243
355.10 0.6067662
355.20 0.6072074
355.30 0.6077664
355.40 0.6083245
355.50 0.608882
355.60 0.6094388
355.70 0.6098845
355.80 0.6102801
355.90 0.6106858
356.00 0.6111865
356.10 0.6117056
356.20 0.612224
356.30 0.6127418
356.40 0.6132589
356.50 0.6137753
356.60 0.614291
356.70 0.6148061
356.80 0.6153204
356.90 0.6158342
357.00 0.6163472
357.10 0.6168596
357.20 0.6173712
357.30 0.6178823
357.40 0.6183585
357.50 0.6187733
357.60 0.6191877
357.70 0.6196014
357.80 0.6202217
357.90 0.6208413
358.00 0.6213712
358.10 0.6218783
358.20 0.6223848
358.30 0.6228905
358.40 0.6233956
358.50 0.6239001
358.60 0.6244039
358.70 0.624907
358.80 0.6254095
358.90 0.6259113
359.00 0.6263793
359.10 0.6267879
359.20 0.6272152
359.30 0.6277712
359.40 0.6283265
359.50 0.6287597
359.60 0.6291619
359.70 0.6295636
359.80 0.6300103
359.90 0.6304564
360.00 0.6309253
360.10 0.631435
360.20 0.6319441
360.30 0.6324525
360.40 0.6329603
360.50 0.6334674
360.60 0.6342636
360.70 0.634749
360.80 0.6352337
360.90 0.6357178
361.00 0.6361691
361.10 0.6366619
361.20 0.6368658
361.30 0.6375144
361.40 0.6378078
361.50 0.6384758
361.60 0.6390888
361.70 0.6395679
361.80 0.6400393
361.90 0.6404976
362.00 0.6409553
362.10 0.6414556
362.20 0.6419498
362.30 0.6424142
362.40 0.6428779
362.50 0.6433411
362.60 0.6438037
362.70 0.6443019
362.80 0.644912
362.90 0.6453794
363.00 0.6458462
363.10 0.6462455
363.20 0.6466436
363.30 0.6472634
363.40 0.6475257
363.50 0.6481997
363.60 0.6486669
363.70 0.6489963
363.80 0.6495994
363.90 0.6501236
364.00 0.650647
364.10 0.6511698
364.20 0.6516919
364.30 0.652057
364.40 0.6523826
364.50 0.6528525
364.60 0.6533109
364.70 0.6537687
364.80 0.6542259
364.90 0.6548896
365.00 0.6555526
365.10 0.6558062
365.20 0.6562636
365.30 0.6567205
365.40 0.6573806
365.50 0.6578361
365.60 0.658291
365.70 0.6586712
365.80 0.659051
365.90 0.6595617
366.00 0.6601046
366.10 0.6605426
366.20 0.6609799
366.30 0.6614167
366.40 0.661853
366.50 0.6623497
366.60 0.6628073
366.70 0.6633661
366.80 0.6639242
366.90 0.6644388
367.00 0.6648765
367.10 0.6653137
367.20 0.6657503
367.30 0.6661863
367.40 0.6666218
367.50 0.6671353
367.60 0.6676678
367.70 0.6681525
367.80 0.6686366
367.90 0.66912
368.00 0.6696346
368.10 0.6698687
368.20 0.6703436
368.30 0.6708214
368.40 0.6712985
368.50 0.6717751
368.60 0.672251
368.70 0.6727263
368.80 0.673201
368.90 0.6738874
369.00 0.6743381
369.10 0.6746352
369.20 0.6750753
369.30 0.6756413
369.40 0.6762066
369.50 0.6767712
369.60 0.6771982
369.70 0.6776247
369.80 0.6781185
369.90 0.6786123
370.00 0.6791055
370.10 0.6793488
370.20 0.6797685
370.30 0.6801955
370.40 0.6808185
370.50 0.6812493
370.60 0.6816696
370.70 0.6823024
370.80 0.6827225
370.90 0.6831421
371.00 0.6835689
371.10 0.6839953
371.20 0.6844132
371.30 0.6848305
371.40 0.6855502
371.50 0.6859893
371.60 0.6864279
371.70 0.6868659
371.80 0.6873033
371.90 0.6877401
372.00 0.6881092
372.10 0.6885821
372.20 0.6890637
372.30 0.6895447
372.40 0.6900251
372.50 0.6905049
372.60 0.6909841
372.70 0.6914626
372.80 0.6918714
372.90 0.6922796
373.00 0.692695
373.10 0.6931099
373.20 0.6935204
373.30 0.6939304
373.40 0.694535
373.50 0.6951389
373.60 0.695352
373.70 0.6959546
373.80 0.6962277
373.90 0.6967682
374.00 0.6972715
374.10 0.6977741
374.20 0.6982762
374.30 0.6987775
374.40 0.6991326
374.50 0.6995748
374.60 0.699981
374.70 0.700385
374.80 0.7007885
374.90 0.7011914
375.00 0.701721
375.10 0.7022498
375.20 0.702778
375.30 0.7032319
375.40 0.7036853
375.50 0.704138
375.60 0.7045902
375.70 0.7050417
375.80 0.7054927
375.90 0.7059431
376.00 0.7063303
376.10 0.7067926
376.20 0.7072551
376.30 0.707717
376.40 0.7081783
376.50 0.7086222
376.60 0.7090402
376.70 0.7094577
376.80 0.7098801
376.90 0.7103076
377.00 0.7107345
377.10 0.7111609
377.20 0.7115934
377.30 0.7120503
377.40 0.7125066
377.50 0.7129624
377.60 0.713415
377.70 0.713867
377.80 0.7143184
377.90 0.7147693
378.00 0.71526
378.10 0.7156765
378.20 0.7160912
378.30 0.7165053
378.40 0.7169188
378.50 0.7173319
378.60 0.7177444
378.70 0.7181563
378.80 0.7185677
378.90 0.7189971
379.00 0.7194601
379.10 0.7199898
379.20 0.7205189
379.30 0.7209595
379.40 0.7213116
379.50 0.7216632
379.60 0.7221029
379.70 0.7226484
379.80 0.7230945
379.90 0.72354
380.00 0.723985
380.10 0.7244293
380.20 0.7248731
380.30 0.7253164
380.40 0.725759
380.50 0.7262011
380.60 0.7265112
380.70 0.7268981
380.80 0.7272844
380.90 0.7276702
381.00 0.7280555
381.10 0.7286107
381.20 0.7291236
381.30 0.7296021
381.40 0.7298596
381.50 0.7304362
381.60 0.7308801
381.70 0.7311871
381.80 0.7317311
381.90 0.7320946
382.00 0.7324576
382.10 0.7330066
382.20 0.7334804
382.30 0.7338418
382.40 0.7342099
382.50 0.7345881
382.60 0.7349659
382.70 0.7353456
382.80 0.7357776
382.90 0.736259
383.00 0.7367398
383.10 0.73722
383.20 0.7376902
383.30 0.7381243
383.40 0.738548
383.50 0.7389562
383.60 0.7393812
383.70 0.7397755
383.80 0.7401693
383.90 0.7405625
384.00 0.7409553
384.10 0.7413475
384.20 0.7417392
384.30 0.7421305
384.40 0.7425622
384.50 0.7430345
384.60 0.7435063
384.70 0.7439774
384.80 0.7444475
384.90 0.7448923
385.00 0.7452937
385.10 0.7456921
385.20 0.7460088
385.30 0.7463663
385.40 0.7467785
385.50 0.7472452
385.60 0.7477112
385.70 0.7481767
385.80 0.7485973
385.90 0.7488509
386.00 0.7493018
386.10 0.7499201
386.20 0.7502366
386.30 0.7505526
386.40 0.7510589
386.50 0.7515215
386.60 0.7519256
386.70 0.752174
386.80 0.752695
386.90 0.7532153
387.00 0.7534714
387.10 0.7539905
387.20 0.7542184
387.30 0.754664
387.40 0.7551791
387.50 0.7556489
387.60 0.755833
387.70 0.7562582
387.80 0.7566828
387.90 0.7571069
388.00 0.7575362
388.10 0.758109
388.20 0.7584261
388.30 0.758838
388.40 0.7592494
388.50 0.7596012
388.60 0.7599147
388.70 0.7603656
388.80 0.7608647
388.90 0.7613734
389.00 0.7615737
389.10 0.762011
389.20 0.7625112
389.30 0.7629866
389.40 0.7633314
389.50 0.7637431
389.60 0.7641531
389.70 0.7643308
389.80 0.7647919
389.90 0.7652524
390.00 0.7657123
390.10 0.7661717
390.20 0.7666305
390.30 0.7670606
390.40 0.7674584
390.50 0.7678556
390.60 0.7682524
390.70 0.7686486
390.80 0.768952
390.90 0.7691626
391.00 0.7695217
391.10 0.7699923
391.20 0.7704828
391.30 0.7709606
391.40 0.7713367
391.50 0.7717124
391.60 0.7720877
391.70 0.7724624
391.80 0.7728366
391.90 0.7731608
392.00 0.773532
392.10 0.7740573
392.20 0.7745533
392.30 0.7748193
392.40 0.7751434
392.50 0.7754983
392.60 0.7759864
392.70 0.776474
392.80 0.7767227
392.90 0.7772954
393.00 0.77765
393.10 0.7780118
393.20 0.7783762
393.30 0.7786844
393.40 0.7790168
393.50 0.7795213
393.60 0.7799739
393.70 0.7802012
393.80 0.7805863
393.90 0.7810673
394.00 0.7815197
394.10 0.781841
394.20 0.7823337
394.30 0.7826859
394.40 0.7830926
394.50 0.7833376
394.60 0.7837221
394.70 0.7841103
394.80 0.7845144
394.90 0.7849162
395.00 0.7852958
395.10 0.7857393
395.20 0.7860817
395.30 0.7864786
395.40 0.7868749
395.50 0.7872078
395.60 0.787517
395.70 0.7878712
395.80 0.7883475
395.90 0.7888233
396.00 0.7892579
396.10 0.7894026
396.20 0.7898714
396.30 0.7903395
396.40 0.7907465
396.50 0.7909278
396.60 0.7913944
396.70 0.7918695
396.80 0.7922007
396.90 0.792592
397.00 0.7928492
397.10 0.7933131
397.20 0.7935856
397.30 0.793927
397.40 0.7942864
397.50 0.7946454
397.60 0.7950126
397.70 0.7954673
397.80 0.7959216
397.90 0.7963437
398.00 0.7966802
398.10 0.7970162
398.20 0.7974028
398.30 0.7978464
398.40 0.7982879
398.50 0.7986786
398.60 0.7990294
398.70 0.7993352
398.80 0.799633
398.90 0.7999522
399.00 0.8003113
399.10 0.8006646
399.20 0.8010471
399.30 0.8014292
399.40 0.8018108
399.50 0.8021919
399.60 0.8025842
399.70 0.8029803
399.80 0.803376
399.90 0.8037711
400.00 0.8041654
400.10 0.8045484
400.20 0.8048351
400.30 0.8051732
400.40 0.8054422
400.50 0.8058692
400.60 0.8063016
400.70 0.8065774
400.80 0.8069766
400.90 0.807421
401.00 0.8076059
401.10 0.8079698
401.20 0.8083265
401.30 0.8088274
401.40 0.8092285
401.50 0.8095761
401.60 0.809924
401.70 0.8102995
401.80 0.8106358
401.90 0.8109062
402.00 0.8113464
402.10 0.8115921
402.20 0.8119056
402.30 0.8123245
402.40 0.812859
402.50 0.8130046
402.60 0.8136265
402.70 0.813876
402.80 0.814311
402.90 0.8146112
403.00 0.8148775
403.10 0.8152774
403.20 0.8155661
403.30 0.8159342
403.40 0.8162635
403.50 0.8166286
403.60 0.8170183
403.70 0.8175332
403.80 0.8178189
403.90 0.8181726
404.00 0.8185127
404.10 0.8189164
404.20 0.8191778
404.30 0.8194388
404.40 0.8198811
404.50 0.8202926
404.60 0.8205524
404.70 0.8208118
404.80 0.8210999
404.90 0.8216617
405.00 0.8220377
405.10 0.8224147
405.20 0.8227195
405.30 0.8230238
405.40 0.8233909
405.50 0.8237575
405.60 0.8241236
405.70 0.8244893
405.80 0.8248545
405.90 0.8252192
406.00 0.8255439
406.10 0.8258681
406.20 0.8261919
406.30 0.8265153
406.40 0.8268493
406.50 0.8272349
406.60 0.8274852
406.70 0.8278601
406.80 0.8282243
406.90 0.8284257
407.00 0.8287747
407.10 0.8291232
407.20 0.8294713
407.30 0.829819
407.40 0.8301662
407.50 0.8305129
407.60 0.8308593
407.70 0.8312052
407.80 0.8315506
407.90 0.8318945
408.00 0.8322017
408.10 0.832529
408.20 0.8328806
408.30 0.8332174
408.40 0.8335538
408.50 0.8339992
408.60 0.8342681
408.70 0.8345367
408.80 0.8348128
408.90 0.8351535
409.00 0.8354949
409.10 0.8358358
409.20 0.8361763
409.30 0.8365164
409.40 0.8368577
409.50 0.8372521
409.60 0.8376461
409.70 0.8380286
409.80 0.8383667
409.90 0.8387009
410.00 0.8389208
410.10 0.8393211
410.20 0.8396804
410.30 0.8400292
410.40 0.8403744
410.50 0.840709
410.60 0.8410432
410.70 0.8413591
410.80 0.8416026
410.90 0.8418458
411.00 0.8421457
411.10 0.8424662
411.20 0.8427863
411.30 0.8431251
411.40 0.8435359
411.50 0.8438077
411.60 0.8440791
411.70 0.8443746
411.80 0.8447672
411.90 0.8451594
412.00 0.8455511
412.10 0.8459424
412.20 0.8460126
412.30 0.8464072
412.40 0.8468162
412.50 0.8471596
412.60 0.8474344
412.70 0.8477579
412.80 0.8480931
412.90 0.8482808
413.00 0.8486666
413.10 0.8490155
413.20 0.8493639
413.30 0.8497119
413.40 0.8500594
413.50 0.8503876
413.60 0.8506523
413.70 0.8509569
413.80 0.8512611
413.90 0.8515649
414.00 0.8518874
414.10 0.8522699
414.20 0.8526518
414.30 0.8527161
414.40 0.8530973
414.50 0.8534707
414.60 0.8538202
414.70 0.8540417
414.80 0.8543008
414.90 0.8546798
415.00 0.8550584
415.10 0.8554364
415.20 0.8557898
415.30 0.8560662
415.40 0.8563421
415.50 0.8566175
415.60 0.8568832
415.70 0.8571486
415.80 0.8574252
415.90 0.8577377
416.00 0.8580499
416.10 0.8583676
416.20 0.858709
416.30 0.8590499
416.40 0.8593904
416.50 0.8597267
416.60 0.8599415
416.70 0.8601607
416.80 0.8605348
416.90 0.860902
417.00 0.8610919
417.10 0.8616367
417.20 0.8618494
417.30 0.8620661
417.40 0.8624262
417.50 0.8627857
417.60 0.8630971
417.70 0.8632232
417.80 0.8635379
417.90 0.8638521
418.00 0.864166
418.10 0.8644795
418.20 0.8647925
418.30 0.865107
418.40 0.8654622
418.50 0.8657575
418.60 0.8660524
418.70 0.866347
418.80 0.8666411
418.90 0.8669349
419.00 0.8672283
419.10 0.8675213
419.20 0.867814
419.30 0.868108
419.40 0.8684598
419.50 0.8688111
419.60 0.8691344
419.70 0.8693468
419.80 0.869559
419.90 0.8697948
420.00 0.8701062
420.10 0.8704172
420.20 0.8707279
420.30 0.8710381
420.40 0.871348
420.50 0.8716574
420.60 0.8719665
420.70 0.8722752
420.80 0.8725834
420.90 0.8728896
421.00 0.873138
421.10 0.873386
421.20 0.8736433
421.30 0.8739288
421.40 0.8742139
421.50 0.8744986
421.60 0.874783
421.70 0.875067
421.80 0.8753507
421.90 0.8756463
422.00 0.8759808
422.10 0.8763
422.20 0.8765594
422.30 0.8768185
422.40 0.8770783
422.50 0.8773722
422.60 0.8776657
422.70 0.8779588
422.80 0.8782516
422.90 0.8785439
423.00 0.8788359
423.10 0.8791275
423.20 0.8794188
423.30 0.8797096
423.40 0.8800001
423.50 0.8802902
423.60 0.88058
423.70 0.8808694
423.80 0.8811584
423.90 0.881447
424.00 0.8817353
424.10 0.8820232
424.20 0.8823107
424.30 0.8825979
424.40 0.8827371
424.50 0.8830232
424.60 0.883309
424.70 0.8835944
424.80 0.8838794
424.90 0.8841641
425.00 0.8844484
425.10 0.8847323
425.20 0.8850159
425.30 0.8852991
425.40 0.8855818
425.50 0.8858626
425.60 0.8861431
425.70 0.8864233
425.80 0.8867031
425.90 0.8869825
426.00 0.8872616
426.10 0.8875403
426.20 0.8878186
426.30 0.8880966
426.40 0.8883742
426.50 0.8886515
426.60 0.8889284
426.70 0.889205
426.80 0.8894812
426.90 0.8897566
427.00 0.8900172
427.10 0.8902774
427.20 0.8905373
427.30 0.8907968
427.40 0.891056
427.50 0.8913149
427.60 0.8915734
427.70 0.8918316
427.80 0.8920895
427.90 0.892347
428.00 0.8926042
428.10 0.892861
428.20 0.8931175
428.30 0.8933737
428.40 0.8936295
428.50 0.893885
428.60 0.8941401
428.70 0.894395
428.80 0.8946505
428.90 0.8949201
429.00 0.8951893
429.10 0.8954582
429.20 0.8957267
429.30 0.8959949
429.40 0.8962627
429.50 0.8965302
429.60 0.8967973
429.70 0.8970641
429.80 0.8973305
429.90 0.8975966
430.00 0.8978623
430.10 0.8981278
430.20 0.8983928
430.30 0.8986575
430.40 0.8989219
430.50 0.8991859
430.60 0.8994496
430.70 0.899713
430.80 0.899976
430.90 0.9002387
431.00 0.900501
431.10 0.900763
431.20 0.9010246
431.30 0.9012855
431.40 0.9015406
431.50 0.9017954
431.60 0.9020499
431.70 0.902304
431.80 0.9025578
431.90 0.9028112
432.00 0.9030643
432.10 0.9033171
432.20 0.9035696
432.30 0.9038217
432.40 0.9040735
432.50 0.904325
432.60 0.9045761
432.70 0.9048269
432.80 0.9050774
432.90 0.9053276
433.00 0.9055774
433.10 0.9058269
433.20 0.9060761
433.30 0.9063222
433.40 0.9065314
433.50 0.9067404
433.60 0.906949
433.70 0.9071574
433.80 0.9074394
433.90 0.9078114
434.00 0.9080915
434.10 0.9083153
434.20 0.9085387
434.30 0.9087619
434.40 0.9089847
434.50 0.9092073
434.60 0.9094295
434.70 0.9096515
434.80 0.9098752
434.90 0.9101263
435.00 0.9103771
435.10 0.9106276
435.20 0.9108777
435.30 0.9111275
435.40 0.911377
435.50 0.9116261
435.60 0.9118749
435.70 0.9121234
435.80 0.9123716
435.90 0.9126194
436.00 0.912867
436.10 0.9131142
436.20 0.9133611
436.30 0.9135881
436.40 0.9137925
436.50 0.9140174
436.60 0.9142419
436.70 0.9144661
436.80 0.91469
436.90 0.9149136
437.00 0.9151369
437.10 0.9153599
437.20 0.9156119
437.30 0.9158905
437.40 0.9161664
437.50 0.9164114
437.60 0.9166561
437.70 0.9169004
437.80 0.9171444
437.90 0.9173881
438.00 0.9176307
438.10 0.9178615
438.20 0.918092
438.30 0.9181987
438.40 0.9185009
438.50 0.9186483
438.60 0.9188055
438.70 0.9190939
438.80 0.919382
438.90 0.9196698
439.00 0.9196746
439.10 0.9199618
439.20 0.9202436
439.30 0.9204595
439.40 0.9206752
439.50 0.9208905
439.60 0.921097
439.70 0.9213345
439.80 0.9216388
439.90 0.9218623
440.00 0.9220854
440.10 0.9223082
440.20 0.9225311
440.30 0.9227581
440.40 0.9229847
440.50 0.9232111
440.60 0.9234372
440.70 0.923663
440.80 0.9238885
440.90 0.9241136
441.00 0.9243385
441.10 0.9245631
441.20 0.9247786
441.30 0.9248773
441.40 0.9250434
441.50 0.9252917
441.60 0.9255398
441.70 0.9257199
441.80 0.9259397
441.90 0.9261592
442.00 0.9263784
442.10 0.9265973
442.20 0.926816
442.30 0.9270343
442.40 0.927253
442.50 0.9274722
442.60 0.927691
442.70 0.9279052
442.80 0.9281167
442.90 0.928383
443.00 0.9285995
443.10 0.9287551
443.20 0.92896
443.30 0.9292102
443.40 0.9294706
443.50 0.9297435
443.60 0.9300162
443.70 0.9300119
443.80 0.9302839
443.90 0.9305556
444.00 0.9307649
444.10 0.9308979
444.20 0.9310583
444.30 0.9315036
444.40 0.9316105
444.50 0.9317173
444.60 0.9319085
444.70 0.9322027
444.80 0.9324423
444.90 0.9326315
445.00 0.9328204
445.10 0.933009
445.20 0.9332159
445.30 0.9334451
445.40 0.9336739
445.50 0.9339025
445.60 0.9341308
445.70 0.9343588
445.80 0.9345651
445.90 0.9347516
446.00 0.9349377
446.10 0.9351237
446.20 0.9353106
446.30 0.9354731
446.40 0.9356121
446.50 0.9358076
446.60 0.9360028
446.70 0.9361977
446.80 0.9364279
446.90 0.9366904
447.00 0.9369526
447.10 0.9372145
447.20 0.9372038
447.30 0.9374651
447.40 0.9377261
447.50 0.9379868
447.60 0.9381728
447.70 0.9382899
447.80 0.938459
447.90 0.9387431
448.00 0.9389671
448.10 0.9391356
448.20 0.9393038
448.30 0.9394718
448.40 0.9396396
448.50 0.9398071
448.60 0.9400141
448.70 0.9402575
448.80 0.9404951
448.90 0.940661
449.00 0.9408266
449.10 0.940992
449.20 0.9411572
449.30 0.9413291
449.40 0.9415625
449.50 0.9417956
449.60 0.9420061
449.70 0.9421959
449.80 0.9423854
449.90 0.9425746
450.00 0.9427636
450.10 0.9429523
450.20 0.9431408
450.30 0.9433289
450.40 0.9435364
450.50 0.9437436
450.60 0.9439504
450.70 0.9441571
450.80 0.9443634
450.90 0.9445694
451.00 0.9446903
451.10 0.944811
451.20 0.945041
451.30 0.9453018
451.40 0.9454175
451.50 0.9455329
451.60 0.9457817
451.70 0.9460301
451.80 0.9461449
451.90 0.9462594
452.00 0.9465071
452.10 0.9467544
452.20 0.9469348
452.30 0.947115
452.40 0.9472949
452.50 0.9474746
452.60 0.9475947
452.70 0.9477403
452.80 0.9479093
452.90 0.948078
453.00 0.9482465
453.10 0.9484147
453.20 0.9486033
453.30 0.9487917
453.40 0.9489798
453.50 0.9491676
453.60 0.9493552
453.70 0.9495425
453.80 0.949733
453.90 0.9499274
454.00 0.9501215
454.10 0.9503154
454.20 0.9504749
454.30 0.9506342
454.40 0.9507933
454.50 0.9509521
454.60 0.9511108
454.70 0.9512817
454.80 0.951464
454.90 0.951646
455.00 0.9518277
455.10 0.9520092
455.20 0.9521905
455.30 0.9523715
455.40 0.9525522
455.50 0.9527327
455.60 0.952913
455.70 0.953093
455.80 0.9532369
455.90 0.9533806
456.00 0.9535242
456.10 0.9536802
456.20 0.9538706
456.30 0.9540607
456.40 0.9542506
456.50 0.9544402
456.60 0.9546295
456.70 0.9548186
456.80 0.9550075
456.90 0.955196
457.00 0.9553843
457.10 0.9555724
457.20 0.9557057
457.30 0.9558708
457.40 0.9560357
457.50 0.9562003
457.60 0.9563647
457.70 0.9565289
457.80 0.9566929
457.90 0.9568566
458.00 0.95702
458.10 0.9571833
458.20 0.9573463
458.30 0.957509
458.40 0.9576716
458.50 0.9578339
458.60 0.957996
458.70 0.9581647
458.80 0.9583359
458.90 0.958507
459.00 0.9586778
459.10 0.9588483
459.20 0.9590186
459.30 0.9591774
459.40 0.959336
459.50 0.9594944
459.60 0.9596525
459.70 0.9598104
459.80 0.9599681
459.90 0.9601255
460.00 0.9602827
460.10 0.9604397
460.20 0.9605965
460.30 0.960753
460.40 0.9609093
460.50 0.9610654
460.60 0.9612213
460.70 0.9613743
460.80 0.9615257
460.90 0.961677
461.00 0.961828
461.10 0.9619788
461.20 0.9621069
461.30 0.9622257
461.40 0.9623466
461.50 0.9624678
461.60 0.9625888
461.70 0.9627096
461.80 0.9628644
461.90 0.963019
462.00 0.9631734
462.10 0.9633276
462.20 0.9634816
462.30 0.9636353
462.40 0.9637888
462.50 0.9639421
462.60 0.9640952
462.70 0.964248
462.80 0.9644006
462.90 0.964553
463.00 0.9647052
463.10 0.9648571
463.20 0.9650226
463.30 0.9651934
463.40 0.965364
463.50 0.9655343
463.60 0.9657044
463.70 0.9658743
463.80 0.9660439
463.90 0.966195
464.00 0.9663413
464.10 0.9664874
464.20 0.9666332
464.30 0.9667789
464.40 0.9669243
464.50 0.9670695
464.60 0.9672145
464.70 0.9673418
464.80 0.9674619
464.90 0.9675817
465.00 0.9677014
465.10 0.9678208
465.20 0.9679401
465.30 0.9680764
465.40 0.9682238
465.50 0.9683711
465.60 0.9685181
465.70 0.968665
465.80 0.9688116
465.90 0.9689497
466.00 0.9690857
466.10 0.9692214
466.20 0.9693569
466.30 0.9694921
466.40 0.9696271
466.50 0.9697619
466.60 0.9698965
466.70 0.9700308
466.80 0.970165
466.90 0.970299
467.00 0.9704327
467.10 0.9705663
467.20 0.9706996
467.30 0.9708324
467.40 0.9709575
467.50 0.9710805
467.60 0.9712034
467.70 0.9713261
467.80 0.9714485
467.90 0.9715865
468.00 0.9717307
468.10 0.9718747
468.20 0.9720184
468.30 0.972206
468.40 0.9724114
468.50 0.9724243
468.60 0.972568
468.70 0.972778
468.80 0.9729779
468.90 0.9731335
469.00 0.9731907
469.10 0.9733028
469.20 0.9734444
469.30 0.9735859
469.40 0.9737271
469.50 0.9738523
469.60 0.9739709
469.70 0.9740892
469.80 0.9742074
469.90 0.9743533
470.00 0.9744766
470.10 0.974585
470.20 0.9747223
470.30 0.9748593
470.40 0.9749962
470.50 0.9751328
470.60 0.9752219
470.70 0.9752991
470.80 0.9753762
470.90 0.975453
471.00 0.9756775
471.10 0.975842
471.20 0.9760261
471.30 0.9759796
471.40 0.9761781
471.50 0.9763764
471.60 0.9764765
471.70 0.9765519
471.80 0.9766762
471.90 0.9768124
472.00 0.9769485
472.10 0.9770843
472.20 0.9772026
472.30 0.9773163
472.40 0.9774299
472.50 0.9775433
472.60 0.9776564
472.70 0.9777758
472.80 0.977898
472.90 0.9780201
473.00 0.978142
473.10 0.9782638
473.20 0.9783853
473.30 0.9785066
473.40 0.9786278
473.50 0.9787488
473.60 0.9788695
473.70 0.9789901
473.80 0.9791106
473.90 0.979231
474.00 0.9793511
474.10 0.979471
474.20 0.9795846
474.30 0.9796955
474.40 0.9798062
474.50 0.9799167
474.60 0.9800277
474.70 0.9801451
474.80 0.9802624
474.90 0.9803795
475.00 0.9804964
475.10 0.9806131
475.20 0.9807297
475.30 0.980846
475.40 0.9809442
475.50 0.9810377
475.60 0.981131
475.70 0.9812242
475.80 0.9813172
475.90 0.98141
476.00 0.9815027
476.10 0.9815952
476.20 0.9816994
476.30 0.9818082
476.40 0.9819168
476.50 0.9820253
476.60 0.9821336
476.70 0.9822417
476.80 0.9823497
476.90 0.9824546
477.00 0.9825586
477.10 0.9826625
477.20 0.9827661
477.30 0.9828696
477.40 0.982973
477.50 0.9830761
477.60 0.9831791
477.70 0.9832819
477.80 0.9833846
477.90 0.9834871
478.00 0.9835894
478.10 0.9836915
478.20 0.9837935
478.30 0.9838952
478.40 0.9839969
478.50 0.9840983
478.60 0.9841996
478.70 0.9842903
478.80 0.9843766
478.90 0.9845058
479.00 0.9846456
479.10 0.9847852
479.20 0.9849246
479.30 0.9850638
479.40 0.985178
479.50 0.9852776
479.60 0.985377
479.70 0.9854762
479.80 0.9855753
479.90 0.9856741
480.00 0.9857729
480.10 0.9858714
480.20 0.9859698
480.30 0.986068
480.40 0.9861661
480.50 0.9862639
480.60 0.9863617
480.70 0.9864592
480.80 0.9865566
480.90 0.9866538
481.00 0.9867509
481.10 0.9868478
481.20 0.9869325
481.30 0.987017
481.40 0.9871014
481.50 0.9871856
481.60 0.9872697
481.70 0.9873536
481.80 0.9874374
481.90 0.987521
482.00 0.9876045
482.10 0.9876878
482.20 0.9877714
482.30 0.9878609
482.40 0.9879503
482.50 0.9880395
482.60 0.9881285
482.70 0.9882174
482.80 0.9883062
482.90 0.9883947
483.00 0.9884831
483.10 0.9885714
483.20 0.9886595
483.30 0.9887474
483.40 0.9888352
483.50 0.9889229
483.60 0.9890103
483.70 0.9890844
483.80 0.9891584
483.90 0.9892322
484.00 0.9893059
484.10 0.9893794
484.20 0.9894619
484.30 0.9895482
484.40 0.9896342
484.50 0.9897202
484.60 0.9898059
484.70 0.9898927
484.80 0.9899952
484.90 0.9900976
485.00 0.9901998
485.10 0.9903018
485.20 0.9904036
485.30 0.9905053
485.40 0.9906068
485.50 0.9907081
485.60 0.9908093
485.70 0.990887
485.80 0.9909646
485.90 0.9910421
486.00 0.9911194
486.10 0.9911965
486.20 0.9912735
486.30 0.9913504
486.40 0.9914271
486.50 0.9915036
486.60 0.99158
486.70 0.991658
486.80 0.9917587
486.90 0.9918593
487.00 0.9919597
487.10 0.9920599
487.20 0.9921354
487.30 0.9922107
487.40 0.9922859
487.50 0.992361
487.60 0.9924359
487.70 0.9925107
487.80 0.9925853
487.90 0.9926598
488.00 0.9927341
488.10 0.9928083
488.20 0.9928803
488.30 0.992924
488.40 0.9929677
488.50 0.9930112
488.60 0.9930547
488.70 0.993098
488.80 0.9931944
488.90 0.9932906
489.00 0.9933774
489.10 0.9934402
489.20 0.9935029
489.30 0.9935655
489.40 0.9936279
489.50 0.9936901
489.60 0.9937523
489.70 0.9938143
489.80 0.9938969
489.90 0.9939834
490.00 0.9940698
490.10 0.994156
490.20 0.994242
490.30 0.9943279
490.40 0.9943753
490.50 0.9944225
490.60 0.9944696
490.70 0.9945165
490.80 0.9946078
490.90 0.9948361
491.00 0.9947697
491.10 0.994929
491.20 0.9949753
491.30 0.9950214
491.40 0.995097
491.50 0.9951134
491.60 0.9952874
491.70 0.9952829
491.80 0.9952946
491.90 0.9955209
492.00 0.9955661
492.10 0.9955382
492.20 0.9956956
492.30 0.9956281
492.40 0.9957752
492.50 0.9957905
492.60 0.9958664
492.70 0.9959108
492.80 0.9959551
492.90 0.9959992
493.00 0.9960459
493.10 0.9961278
493.20 0.9962096
493.30 0.9962912
493.40 0.9963726
493.50 0.9964539
493.60 0.9965264
493.70 0.9965395
493.80 0.9965525
493.90 0.9966133
494.00 0.9967488
494.10 0.9968612
494.20 0.9969249
494.30 0.9969885
494.40 0.997052
494.50 0.9971153
494.60 0.9971717
494.70 0.9971374
494.80 0.9971313
494.90 0.9972057
495.00 0.99728
495.10 0.9973541
495.20 0.9974101
495.30 0.997466
495.40 0.9975217
495.50 0.9975773
495.60 0.9976328
495.70 0.9976882
495.80 0.9977434
495.90 0.9977985
496.00 0.9978535
496.10 0.997932
496.20 0.9980538
496.30 0.9980862
496.40 0.9981184
496.50 0.9981505
496.60 0.9981826
496.70 0.9982391
496.80 0.9982955
496.90 0.9983518
497.00 0.998408
497.10 0.998464
497.20 0.9985199
497.30 0.9985736
497.40 0.9986213
497.50 0.9986688
497.60 0.9987415
497.70 0.9988614
497.80 0.9988962
497.90 0.9989309
498.00 0.9989654
498.10 0.9989999
498.20 0.9990342
498.30 0.9990685
498.40 0.9991026
498.50 0.9991367
498.60 0.9991706
498.70 0.9993172
498.80 0.9994637
498.90 0.9994792
499.00 0.9994946
499.10 0.9995099
499.20 0.999524
499.30 0.9995506
499.40 0.9996193
499.50 0.9996878
499.60 0.9997563
499.70 0.9998239
499.80 0.9998827
499.90 0.9999414
500.00 1
500.10 1.000058
500.20 1.000109
500.30 1.000145
500.40 1.00018
500.50 1.000215
500.60 1.00025
500.70 1.000285
500.80 1.000327
500.90 1.000385
501.00 1.000443
501.10 1.000501
501.20 1.000458
501.30 1.000492
501.40 1.000561
501.50 1.000638
501.60 1.000629
501.70 1.000706
501.80 1.000661
501.90 1.000695
502.00 1.000744
502.10 1.000825
502.20 1.000899
502.30 1.00087
502.40 1.000873
502.50 1.000942
502.60 1.001011
502.70 1.001079
502.80 1.001148
502.90 1.001216
503.00 1.001271
503.10 1.001297
503.20 1.001322
503.30 1.001348
503.40 1.001371
503.50 1.001389
503.60 1.001406
503.70 1.001423
503.80 1.001448
503.90 1.001527
504.00 1.001588
504.10 1.001613
504.20 1.001638
504.30 1.001663
504.40 1.001689
504.50 1.00172
504.60 1.001778
504.70 1.001884
504.80 1.001839
504.90 1.001944
505.00 1.001872
505.10 1.001902
505.20 1.001934
505.30 1.001971
505.40 1.002007
505.50 1.002043
505.60 1.002076
505.70 1.002101
505.80 1.002126
505.90 1.002152
506.00 1.002177
506.10 1.002202
506.20 1.002228
506.30 1.00226
506.40 1.002292
506.50 1.002323
506.60 1.002355
506.70 1.002386
506.80 1.002418
506.90 1.002449
507.00 1.00248
507.10 1.002502
507.20 1.002512
507.30 1.00254
507.40 1.002568
507.50 1.002596
507.60 1.002624
507.70 1.002651
507.80 1.002679
507.90 1.002706
508.00 1.002733
508.10 1.00276
508.20 1.002787
508.30 1.002814
508.40 1.002841
508.50 1.002868
508.60 1.002895
508.70 1.002921
508.80 1.002944
508.90 1.002976
509.00 1.003016
509.10 1.003051
509.20 1.003075
509.30 1.003099
509.40 1.003123
509.50 1.003146
509.60 1.00317
509.70 1.003193
509.80 1.003217
509.90 1.00324
510.00 1.003263
510.10 1.003286
510.20 1.003309
510.30 1.003333
510.40 1.00336
510.50 1.003387
510.60 1.003414
510.70 1.00344
510.80 1.003467
510.90 1.003493
511.00 1.003519
511.10 1.003545
511.20 1.003572
511.30 1.003597
511.40 1.003623
511.50 1.003649
511.60 1.003673
511.70 1.003693
511.80 1.003713
511.90 1.003733
512.00 1.003753
512.10 1.003773
512.20 1.003792
512.30 1.00381
512.40 1.003823
512.50 1.003836
512.60 1.003849
512.70 1.003861
512.80 1.003874
512.90 1.003886
513.00 1.003899
513.10 1.003911
513.20 1.003923
513.30 1.003935
513.40 1.003947
513.50 1.003959
513.60 1.003971
513.70 1.003983
513.80 1.003994
513.90 1.004006
514.00 1.004016
514.10 1.004027
514.20 1.004037
514.30 1.004047
514.40 1.004057
514.50 1.004067
514.60 1.004077
514.70 1.004086
514.80 1.004096
514.90 1.004106
515.00 1.004115
515.10 1.004125
515.20 1.004134
515.30 1.004143
515.40 1.004152
515.50 1.004161
515.60 1.00417
515.70 1.004179
515.80 1.004188
515.90 1.004197
516.00 1.004206
516.10 1.004214
516.20 1.004223
516.30 1.004231
516.40 1.004239
516.50 1.004248
516.60 1.004256
516.70 1.004264
516.80 1.004272
516.90 1.004281
517.00 1.004289
517.10 1.004296
517.20 1.004304
517.30 1.004312
517.40 1.00432
517.50 1.004327
517.60 1.004335
517.70 1.004342
517.80 1.00435
517.90 1.004357
518.00 1.004364
518.10 1.004371
518.20 1.004378
518.30 1.004385
518.40 1.004392
518.50 1.004399
518.60 1.004406
518.70 1.004412
518.80 1.004419
518.90 1.004425
519.00 1.004432
519.10 1.004434
519.20 1.004433
519.30 1.004431
519.40 1.004429
519.50 1.004427
519.60 1.004425
519.70 1.004423
519.80 1.004421
519.90 1.004419
520.00 1.004417
520.10 1.004414
520.20 1.004412
520.30 1.00441
520.40 1.004407
520.50 1.004404
520.60 1.004402
520.70 1.004399
520.80 1.004396
520.90 1.004393
521.00 1.00439
521.10 1.004387
521.20 1.004384
521.30 1.004381
521.40 1.004378
521.50 1.004374
521.60 1.004371
521.70 1.004368
521.80 1.004364
521.90 1.00436
522.00 1.004357
522.10 1.004353
522.20 1.004349
522.30 1.004345
522.40 1.004341
522.50 1.004337
522.60 1.004333
522.70 1.004329
522.80 1.004325
522.90 1.00432
523.00 1.004316
523.10 1.004312
523.20 1.004307
523.30 1.004302
523.40 1.004298
523.50 1.004293
523.60 1.004288
523.70 1.004283
523.80 1.004278
523.90 1.004273
524.00 1.004268
524.10 1.004263
524.20 1.004258
524.30 1.004248
524.40 1.004236
524.50 1.004223
524.60 1.00421
524.70 1.004197
524.80 1.004184
524.90 1.004171
525.00 1.004157
525.10 1.004144
525.20 1.004131
525.30 1.004118
525.40 1.004104
525.50 1.004091
525.60 1.004077
525.70 1.004063
525.80 1.00405
525.90 1.004036
526.00 1.004022
526.10 1.004008
526.20 1.003994
526.30 1.00398
526.40 1.003966
526.50 1.003952
526.60 1.003938
526.70 1.003924
526.80 1.003909
526.90 1.003895
527.00 1.003881
527.10 1.003866
527.20 1.003852
527.30 1.003837
527.40 1.003822
527.50 1.003808
527.60 1.003793
527.70 1.003778
527.80 1.003763
527.90 1.003748
528.00 1.003733
528.10 1.003718
528.20 1.003703
528.30 1.003687
528.40 1.003672
528.50 1.003657
528.60 1.003641
528.70 1.003626
528.80 1.00361
528.90 1.003595
529.00 1.003579
529.10 1.003564
529.20 1.003548
529.30 1.003532
529.40 1.003516
529.50 1.0035
529.60 1.00348
529.70 1.00346
529.80 1.00344
529.90 1.00342
530.00 1.003401
530.10 1.003381
530.20 1.003361
530.30 1.00334
530.40 1.00332
530.50 1.0033
530.60 1.00328
530.70 1.003259
530.80 1.003239
530.90 1.003219
531.00 1.003198
531.10 1.003178
531.20 1.003157
531.30 1.003136
531.40 1.003116
531.50 1.003095
531.60 1.003074
531.70 1.003053
531.80 1.003032
531.90 1.003011
532.00 1.00299
532.10 1.002969
532.20 1.002948
532.30 1.002927
532.40 1.002906
532.50 1.002885
532.60 1.002863
532.70 1.002842
532.80 1.002821
532.90 1.002799
533.00 1.002778
533.10 1.002756
533.20 1.002735
533.30 1.002713
533.40 1.002692
533.50 1.00267
533.60 1.002648
533.70 1.002626
533.80 1.002604
533.90 1.002582
534.00 1.00256
534.10 1.002538
534.20 1.002516
534.30 1.002494
534.40 1.002472
534.50 1.00245
534.60 1.002427
534.70 1.002405
534.80 1.002381
534.90 1.002347
535.00 1.002314
535.10 1.002281
535.20 1.002248
535.30 1.002214
535.40 1.002181
535.50 1.002147
535.60 1.002114
535.70 1.002081
535.80 1.002047
535.90 1.002013
536.00 1.00198
536.10 1.001946
536.20 1.001912
536.30 1.001879
536.40 1.001845
536.50 1.001811
536.60 1.001777
536.70 1.001743
536.80 1.001709
536.90 1.001675
537.00 1.001641
537.10 1.001607
537.20 1.001572
537.30 1.001538
537.40 1.001504
537.50 1.00147
537.60 1.001435
537.70 1.001401
537.80 1.001366
537.90 1.001332
538.00 1.001297
538.10 1.001263
538.20 1.001228
538.30 1.001194
538.40 1.001159
538.50 1.001124
538.60 1.001089
538.70 1.001055
538.80 1.00102
538.90 1.000985
539.00 1.00095
539.10 1.000915
539.20 1.00088
539.30 1.000845
539.40 1.00081
539.50 1.000774
539.60 1.000739
539.70 1.000704
539.80 1.000669
539.90 1.000633
540.00 1.000598
540.10 1.000562
540.20 1.000522
540.30 1.00048
540.40 1.000438
540.50 1.000395
540.60 1.000353
540.70 1.000311
540.80 1.000268
540.90 1.000226
541.00 1.000183
541.10 1.000141
541.20 1.000098
541.30 1.000055
541.40 1.000013
541.50 0.99997
541.60 0.9999272
541.70 0.9998845
541.80 0.9998417
541.90 0.9997988
542.00 0.999756
542.10 0.999713
542.20 0.9996701
542.30 0.9996271
542.40 0.9995841
542.50 0.999541
542.60 0.9994979
542.70 0.9994548
542.80 0.9994116
542.90 0.9993684
543.00 0.9993252
543.10 0.9992819
543.20 0.9992386
543.30 0.9991952
543.40 0.9991518
543.50 0.9991084
543.60 0.999065
543.70 0.9990215
543.80 0.998978
543.90 0.9989344
544.00 0.9988908
544.10 0.9988472
544.20 0.9988035
544.30 0.9987598
544.40 0.9987161
544.50 0.9986723
544.60 0.9986285
544.70 0.9985846
544.80 0.9985407
544.90 0.9984968
545.00 0.9984529
545.10 0.9984089
545.20 0.9983649
545.30 0.9983208
545.40 0.9982767
545.50 0.9982326
545.60 0.9981885
545.70 0.9981444
545.80 0.9981003
545.90 0.9980562
546.00 0.998012
546.10 0.9979678
546.20 0.9979235
546.30 0.9978792
546.40 0.9978349
546.50 0.9977905
546.60 0.9977461
546.70 0.9977017
546.80 0.9976572
546.90 0.9976127
547.00 0.9975682
547.10 0.9975236
547.20 0.997479
547.30 0.9974344
547.40 0.9973897
547.50 0.997345
547.60 0.9973003
547.70 0.9972555
547.80 0.9972107
547.90 0.9971659
548.00 0.997121
548.10 0.9970761
548.20 0.9970312
548.30 0.9969835
548.40 0.9969319
548.50 0.9968804
548.60 0.9968288
548.70 0.9967772
548.80 0.9967255
548.90 0.9966739
549.00 0.9966222
549.10 0.9965704
549.20 0.9965187
549.30 0.9964669
549.40 0.9964151
549.50 0.9963633
549.60 0.9963114
549.70 0.9962595
549.80 0.9962076
549.90 0.9961556
550.00 0.9961036
550.10 0.9960516
550.20 0.9959996
550.30 0.9959475
550.40 0.9958954
550.50 0.9958433
550.60 0.9957912
550.70 0.995739
550.80 0.9956868
550.90 0.9956345
551.00 0.9955808
551.10 0.9955189
551.20 0.9954569
551.30 0.995395
551.40 0.995333
551.50 0.995271
551.60 0.9952089
551.70 0.9951469
551.80 0.9950848
551.90 0.9950227
552.00 0.9949606
552.10 0.9948984
552.20 0.9948363
552.30 0.9947741
552.40 0.9947119
552.50 0.9946497
552.60 0.9945874
552.70 0.9945252
552.80 0.9944629
552.90 0.9944006
553.00 0.9943383
553.10 0.9942759
553.20 0.9942136
553.30 0.9941512
553.40 0.9940888
553.50 0.9940264
553.60 0.9939639
553.70 0.9939015
553.80 0.993839
553.90 0.9937765
554.00 0.993714
554.10 0.9936515
554.20 0.9935889
554.30 0.9935263
554.40 0.9934637
554.50 0.9934011
554.60 0.9933385
554.70 0.9932758
554.80 0.9932131
554.90 0.9931505
555.00 0.9930877
555.10 0.993025
555.20 0.9929623
555.30 0.9928995
555.40 0.9928367
555.50 0.9927739
555.60 0.9927111
555.70 0.9926482
555.80 0.9925853
555.90 0.9925225
556.00 0.9924596
556.10 0.9923966
556.20 0.9923337
556.30 0.9922707
556.40 0.9922078
556.50 0.9921446
556.60 0.9920787
556.70 0.9920128
556.80 0.9919468
556.90 0.9918808
557.00 0.9918149
557.10 0.9917489
557.20 0.9916828
557.30 0.9916168
557.40 0.9915508
557.50 0.9914847
557.60 0.9914186
557.70 0.9913525
557.80 0.9912864
557.90 0.9912203
558.00 0.9911541
558.10 0.991088
558.20 0.9910218
558.30 0.9909556
558.40 0.9908894
558.50 0.9908231
558.60 0.9907569
558.70 0.9906906
558.80 0.9906244
558.90 0.9905581
559.00 0.9904918
559.10 0.9904254
559.20 0.9903591
559.30 0.9902927
559.40 0.9902264
559.50 0.99016
559.60 0.9900936
559.70 0.9900272
559.80 0.9899607
559.90 0.9898943
560.00 0.9898278
560.10 0.9897613
560.20 0.9896948
560.30 0.9896283
560.40 0.9895618
560.50 0.9894952
560.60 0.9894287
560.70 0.9893621
560.80 0.9892955
560.90 0.9892289
561.00 0.9891623
561.10 0.9890956
561.20 0.989029
561.30 0.9889623
561.40 0.9888956
561.50 0.9888289
561.60 0.9887622
561.70 0.9886955
561.80 0.9886288
561.90 0.988562
562.00 0.9884952
562.10 0.9884273
562.20 0.9883576
562.30 0.9882879
562.40 0.9882182
562.50 0.9881484
562.60 0.9880787
562.70 0.9880089
562.80 0.9879392
562.90 0.9878694
563.00 0.9877996
563.10 0.9877298
563.20 0.98766
563.30 0.9875901
563.40 0.9875203
563.50 0.9874504
563.60 0.9873806
563.70 0.9873107
563.80 0.9872408
563.90 0.9871709
564.00 0.987101
564.10 0.987031
564.20 0.9869611
564.30 0.9868911
564.40 0.9868212
564.50 0.9867512
564.60 0.9866812
564.70 0.9866112
564.80 0.9865411
564.90 0.9864694
565.00 0.9863934
565.10 0.9863174
565.20 0.9862413
565.30 0.9861653
565.40 0.9860892
565.50 0.9860132
565.60 0.9859371
565.70 0.9858611
565.80 0.985785
565.90 0.9857089
566.00 0.9856328
566.10 0.9855567
566.20 0.9854806
566.30 0.9854045
566.40 0.9853284
566.50 0.9852522
566.60 0.9851761
566.70 0.9850999
566.80 0.9850238
566.90 0.9849476
567.00 0.9848715
567.10 0.9847953
567.20 0.9847191
567.30 0.9846429
567.40 0.9845667
567.50 0.9844905
567.60 0.9844143
567.70 0.9843364
567.80 0.9842515
567.90 0.9841666
568.00 0.9840817
568.10 0.9839968
568.20 0.9839119
568.30 0.983827
568.40 0.9837421
568.50 0.9836572
568.60 0.9835723
568.70 0.9834874
568.80 0.9834025
568.90 0.9833176
569.00 0.9832327
569.10 0.9831478
569.20 0.9830629
569.30 0.982978
569.40 0.9828931
569.50 0.9828082
569.60 0.9827232
569.70 0.9826383
569.80 0.9825534
569.90 0.9824685
570.00 0.9823836
570.10 0.9822987
570.20 0.9822137
570.30 0.9821288
570.40 0.9820439
570.50 0.981959
570.60 0.9818741
570.70 0.9817891
570.80 0.9817042
570.90 0.9816193
571.00 0.9815344
571.10 0.9814494
571.20 0.9813645
571.30 0.9812796
571.40 0.9811946
571.50 0.9811097
571.60 0.9810248
571.70 0.9809399
571.80 0.9808549
571.90 0.98077
572.00 0.9806851
572.10 0.9806001
572.20 0.9805152
572.30 0.9804303
572.40 0.9803453
572.50 0.9802604
572.60 0.9801755
572.70 0.9800905
572.80 0.9800056
572.90 0.9799207
573.00 0.9798357
573.10 0.9797508
573.20 0.9796658
573.30 0.9795809
573.40 0.9794957
573.50 0.9794101
573.60 0.9793245
573.70 0.9792389
573.80 0.9791533
573.90 0.9790677
574.00 0.9789821
574.10 0.9788965
574.20 0.9788109
574.30 0.9787253
574.40 0.9786398
574.50 0.9785542
574.60 0.9784686
574.70 0.978383
574.80 0.9782974
574.90 0.9782118
575.00 0.9781262
575.10 0.9780406
575.20 0.977955
575.30 0.9778694
575.40 0.9777838
575.50 0.9776983
575.60 0.9776127
575.70 0.9775271
575.80 0.9774415
575.90 0.9773559
576.00 0.9772703
576.10 0.9771847
576.20 0.9770991
576.30 0.9770136
576.40 0.976928
576.50 0.9768424
576.60 0.9767568
576.70 0.9766712
576.80 0.9765856
576.90 0.9765001
577.00 0.9764145
577.10 0.9763289
577.20 0.9762433
577.30 0.9761577
577.40 0.9760722
577.50 0.9759866
577.60 0.9758984
577.70 0.975806
577.80 0.9757136
577.90 0.9756212
578.00 0.9755288
578.10 0.9754364
578.20 0.975344
578.30 0.9752516
578.40 0.9751593
578.50 0.9750669
578.60 0.9749745
578.70 0.9748822
578.80 0.9747898
578.90 0.9746975
579.00 0.9746052
579.10 0.9745119
579.20 0.9744095
579.30 0.974307
579.40 0.9742046
579.50 0.9741022
579.60 0.9739997
579.70 0.9738973
579.80 0.973795
579.90 0.9736926
580.00 0.9735902
580.10 0.9734915
580.20 0.9733985
580.30 0.9733056
580.40 0.9732127
580.50 0.9731198
580.60 0.9730269
580.70 0.972934
580.80 0.9728411
580.90 0.9727483
581.00 0.9726554
581.10 0.9725625
581.20 0.9724697
581.30 0.9723768
581.40 0.972284
581.50 0.9721911
581.60 0.9720983
581.70 0.9720054
581.80 0.9719126
581.90 0.9718198
582.00 0.971727
582.10 0.9716322
582.20 0.971534
582.30 0.9714359
582.40 0.9713377
582.50 0.9712396
582.60 0.9711415
582.70 0.9710434
582.80 0.9709453
582.90 0.9708472
583.00 0.9707492
583.10 0.9706511
583.20 0.9705531
583.30 0.970455
583.40 0.970357
583.50 0.970259
583.60 0.9701639
583.70 0.9700737
583.80 0.9699834
583.90 0.9698932
584.00 0.9698029
584.10 0.9697127
584.20 0.9696225
584.30 0.9695323
584.40 0.969442
584.50 0.9693518
584.60 0.9692616
584.70 0.9691714
584.80 0.9690812
584.90 0.9689886
585.00 0.9688846
585.10 0.9687807
585.20 0.968675
585.30 0.9685665
585.40 0.9684581
585.50 0.9683497
585.60 0.9682413
585.70 0.9681329
585.80 0.9680245
585.90 0.9679162
586.00 0.9678078
586.10 0.9676995
586.20 0.9675972
586.30 0.9675048
586.40 0.9674123
586.50 0.9673199
586.60 0.9672275
586.70 0.9671351
586.80 0.9670427
586.90 0.9669503
587.00 0.9668579
587.10 0.9667655
587.20 0.9666731
587.30 0.9665807
587.40 0.9663984
587.50 0.9663849
587.60 0.9662098
587.70 0.9661135
587.80 0.966089
587.90 0.9659179
588.00 0.9657768
588.10 0.9656845
588.20 0.9655923
588.30 0.9655
588.40 0.9654078
588.50 0.9653155
588.60 0.9652233
588.70 0.9651311
588.80 0.9650389
588.90 0.9649466
589.00 0.9648485
589.10 0.9647406
589.20 0.9646327
589.30 0.9645249
589.40 0.964417
589.50 0.9643092
589.60 0.9642014
589.70 0.9640936
589.80 0.9639859
589.90 0.9638781
590.00 0.9637722
590.10 0.9636693
590.20 0.9635663
590.30 0.9634634
590.40 0.9633605
590.50 0.9632576
590.60 0.9631547
590.70 0.9630519
590.80 0.9629505
590.90 0.9628498
591.00 0.9627491
591.10 0.9626484
591.20 0.9625477
591.30 0.962447
591.40 0.9623464
591.50 0.9622458
591.60 0.9621425
591.70 0.9620351
591.80 0.9619276
591.90 0.9618202
592.00 0.9617128
592.10 0.9616054
592.20 0.9614981
592.30 0.9613907
592.40 0.9612834
592.50 0.9611761
592.60 0.9610688
592.70 0.9609615
592.80 0.9608542
592.90 0.960747
593.00 0.9606397
593.10 0.9605325
593.20 0.9604253
593.30 0.9603182
593.40 0.960211
593.50 0.9601039
593.60 0.9599967
593.70 0.9598896
593.80 0.9597826
593.90 0.9596755
594.00 0.9595684
594.10 0.9594614
594.20 0.9593544
594.30 0.9592474
594.40 0.9591404
594.50 0.9590334
594.60 0.9589265
594.70 0.9588196
594.80 0.9587127
594.90 0.9586058
595.00 0.9584989
595.10 0.9583918
595.20 0.9582843
595.30 0.9581769
595.40 0.9580695
595.50 0.9579621
595.60 0.9578547
595.70 0.9577473
595.80 0.9576399
595.90 0.9575326
596.00 0.9574253
596.10 0.957318
596.20 0.9572107
596.30 0.9571034
596.40 0.9569962
596.50 0.956889
596.60 0.9567818
596.70 0.9566654
596.80 0.9565433
596.90 0.9564213
597.00 0.9562993
597.10 0.9561774
597.20 0.9560555
597.30 0.9559336
597.40 0.9558117
597.50 0.9556899
597.60 0.9555728
597.70 0.9554636
597.80 0.9553543
597.90 0.9552451
598.00 0.9551359
598.10 0.9550267
598.20 0.9549176
598.30 0.9548084
598.40 0.9546993
598.50 0.9545902
598.60 0.9544811
598.70 0.9543721
598.80 0.954263
598.90 0.954154
599.00 0.954045
599.10 0.953936
599.20 0.9538271
599.30 0.9537181
599.40 0.9536045
599.50 0.9534909
599.60 0.9533774
599.70 0.9532638
599.80 0.9531503
599.90 0.9530368
600.00 0.9529234
600.10 0.9528099
600.20 0.9526965
600.30 0.9525831
600.40 0.9524697
600.50 0.9523564
600.60 0.952243
600.70 0.9521297
600.80 0.9520164
600.90 0.9519032
601.00 0.9517899
601.10 0.9516767
601.20 0.9515635
601.30 0.9514503
601.40 0.9513416
601.50 0.9512329
601.60 0.9511242
601.70 0.9510155
601.80 0.9509068
601.90 0.9507982
602.00 0.9506896
602.10 0.950581
602.20 0.9504724
602.30 0.9503638
602.40 0.9502553
602.50 0.9501468
602.60 0.9500383
602.70 0.9498794
602.80 0.949718
602.90 0.9495995
603.00 0.9494812
603.10 0.9493628
603.20 0.9492445
603.30 0.9491261
603.40 0.9490079
603.50 0.9488896
603.60 0.9487714
603.70 0.9486532
603.80 0.948535
603.90 0.9484168
604.00 0.9482987
604.10 0.9481806
604.20 0.9480625
604.30 0.9479445
604.40 0.9478264
604.50 0.9477215
604.60 0.9476165
604.70 0.9475116
604.80 0.9474067
604.90 0.9473018
605.00 0.9471969
605.10 0.9470921
605.20 0.9469873
605.30 0.9468824
605.40 0.9467776
605.50 0.9466629
605.60 0.9465483
605.70 0.9464337
605.80 0.946319
605.90 0.9462045
606.00 0.9460899
606.10 0.945963
606.20 0.9458361
606.30 0.9457093
606.40 0.9455825
606.50 0.9454187
606.60 0.945255
606.70 0.9451653
606.80 0.9451496
606.90 0.944986
607.00 0.9448963
607.10 0.9447328
607.20 0.9445693
607.30 0.9444428
607.40 0.9443163
607.50 0.9441899
607.60 0.9440635
607.70 0.9439494
607.80 0.9438353
607.90 0.9437213
608.00 0.9436073
608.10 0.9434933
608.20 0.9433793
608.30 0.943274
608.40 0.9431687
608.50 0.9430635
608.60 0.9429582
608.70 0.9428366
608.80 0.9427076
608.90 0.9425787
609.00 0.9424497
609.10 0.9423209
609.20 0.942192
609.30 0.9420753
609.40 0.9419585
609.50 0.9418418
609.60 0.9417252
609.70 0.9416085
609.80 0.9414919
609.90 0.9413753
610.00 0.9412588
610.10 0.9411422
610.20 0.9410257
610.30 0.9409092
610.40 0.9407928
610.50 0.9406763
610.60 0.9405599
610.70 0.9404435
610.80 0.9403272
610.90 0.9402041
611.00 0.9400811
611.10 0.9399582
611.20 0.9398353
611.30 0.9397124
611.40 0.9395895
611.50 0.9394666
611.60 0.9393438
611.70 0.9392211
611.80 0.9390983
611.90 0.9389756
612.00 0.9388529
612.10 0.9387302
612.20 0.9386076
612.30 0.938485
612.40 0.93836
612.50 0.9382351
612.60 0.9381101
612.70 0.9379852
612.80 0.9378604
612.90 0.9377355
613.00 0.9376107
613.10 0.937486
613.20 0.9373612
613.30 0.9372365
613.40 0.9371119
613.50 0.9369872
613.60 0.9368626
613.70 0.936738
613.80 0.9366135
613.90 0.936489
614.00 0.9363645
614.10 0.93624
614.20 0.9361156
614.30 0.9359912
614.40 0.9358595
614.50 0.9357278
614.60 0.9355962
614.70 0.9354646
614.80 0.9353389
614.90 0.9352145
615.00 0.93509
615.10 0.9349656
615.20 0.9348413
615.30 0.934717
615.40 0.9345927
615.50 0.9344684
615.60 0.9343442
615.70 0.93422
615.80 0.9340958
615.90 0.9339717
616.00 0.9338476
616.10 0.9337235
616.20 0.9335994
616.30 0.9334754
616.40 0.9333514
616.50 0.9332275
616.60 0.9331036
616.70 0.9329797
616.80 0.9328558
616.90 0.9327294
617.00 0.9326031
617.10 0.9324768
617.20 0.9323505
617.30 0.9322242
617.40 0.932098
617.50 0.9319718
617.60 0.9318457
617.70 0.9317196
617.80 0.9315935
617.90 0.9314674
618.00 0.9313414
618.10 0.9312154
618.20 0.9310895
618.30 0.9309635
618.40 0.9308376
618.50 0.9307118
618.60 0.930586
618.70 0.9304602
618.80 0.9303344
618.90 0.9302087
619.00 0.930083
619.10 0.9299573
619.20 0.9298317
619.30 0.9297061
619.40 0.9295805
619.50 0.929455
619.60 0.9293295
619.70 0.929204
619.80 0.9290786
619.90 0.9289532
620.00 0.9288278
620.10 0.9287025
620.20 0.9285772
620.30 0.9284519
620.40 0.9283267
620.50 0.9282015
620.60 0.9280763
620.70 0.9279512
620.80 0.9278261
620.90 0.9276982
621.00 0.9275655
621.10 0.9274327
621.20 0.9273001
621.30 0.9271674
621.40 0.9270348
621.50 0.9269023
621.60 0.9267697
621.70 0.9266372
621.80 0.9265048
621.90 0.9263724
622.00 0.92624
622.10 0.9261076
622.20 0.9259753
622.30 0.9258431
622.40 0.9257108
622.50 0.9255786
622.60 0.9254465
622.70 0.9253144
622.80 0.9251823
622.90 0.9250502
623.00 0.9249182
623.10 0.9247863
623.20 0.9246543
623.30 0.9245224
623.40 0.9243906
623.50 0.9242588
623.60 0.924127
623.70 0.9239952
623.80 0.9238635
623.90 0.9237318
624.00 0.9236002
624.10 0.9234686
624.20 0.923337
624.30 0.9232055
624.40 0.923074
624.50 0.9229426
624.60 0.9228112
624.70 0.9226798
624.80 0.9225484
624.90 0.9224171
625.00 0.9222859
625.10 0.9221546
625.20 0.9220234
625.30 0.9218923
625.40 0.9217612
625.50 0.9216301
625.60 0.921499
625.70 0.921368
625.80 0.921237
625.90 0.9211061
626.00 0.9209752
626.10 0.9208443
626.20 0.9207135
626.30 0.9205827
626.40 0.920452
626.50 0.9203212
626.60 0.9201906
626.70 0.9200599
626.80 0.9199293
626.90 0.9197987
627.00 0.9196682
627.10 0.9195367
627.20 0.9194024
627.30 0.9192682
627.40 0.919134
627.50 0.9189999
627.60 0.9188658
627.70 0.9187317
627.80 0.9185977
627.90 0.9184637
628.00 0.9183298
628.10 0.9181959
628.20 0.918062
628.30 0.9179282
628.40 0.9177944
628.50 0.9176607
628.60 0.917527
628.70 0.9173933
628.80 0.9172597
628.90 0.9171261
629.00 0.9169925
629.10 0.916859
629.20 0.9167255
629.30 0.9165921
629.40 0.9164587
629.50 0.9163253
629.60 0.916192
629.70 0.9160587
629.80 0.9159254
629.90 0.9157922
630.00 0.9156591
630.10 0.9155259
630.20 0.9153928
630.30 0.9152597
630.40 0.9151267
630.50 0.9149936
630.60 0.9148606
630.70 0.9147277
630.80 0.9145948
630.90 0.9144619
631.00 0.9143291
631.10 0.9141963
631.20 0.9140635
631.30 0.9139308
631.40 0.9137981
631.50 0.9136654
631.60 0.9135328
631.70 0.9134003
631.80 0.9132677
631.90 0.9131352
632.00 0.9130028
632.10 0.9128704
632.20 0.912738
632.30 0.9126056
632.40 0.9124733
632.50 0.9123411
632.60 0.9122088
632.70 0.9120767
632.80 0.9119445
632.90 0.9118124
633.00 0.9116803
633.10 0.9115483
633.20 0.9114163
633.30 0.9112843
633.40 0.9111492
633.50 0.9110115
633.60 0.9108739
633.70 0.9107364
633.80 0.9105988
633.90 0.9104614
634.00 0.9103239
634.10 0.9101865
634.20 0.9100492
634.30 0.9099118
634.40 0.9097746
634.50 0.9096373
634.60 0.9095001
634.70 0.909363
634.80 0.9092259
634.90 0.9090888
635.00 0.9089518
635.10 0.9088148
635.20 0.9086779
635.30 0.908541
635.40 0.9084041
635.50 0.9082673
635.60 0.9081305
635.70 0.9079938
635.80 0.9078571
635.90 0.9077204
636.00 0.9075838
636.10 0.9074472
636.20 0.9073107
636.30 0.9071742
636.40 0.9070378
636.50 0.9069013
636.60 0.9067649
636.70 0.9066286
636.80 0.9064922
636.90 0.9063559
637.00 0.9062197
637.10 0.9060835
637.20 0.9059473
637.30 0.9058112
637.40 0.9056751
637.50 0.905539
637.60 0.905403
637.70 0.9052671
637.80 0.9051311
637.90 0.9049953
638.00 0.9048594
638.10 0.9047236
638.20 0.9045879
638.30 0.9044521
638.40 0.9043164
638.50 0.9041808
638.60 0.9040452
638.70 0.9039096
638.80 0.9037741
638.90 0.9036387
639.00 0.9035032
639.10 0.9033678
639.20 0.9032325
639.30 0.9030971
639.40 0.9029619
639.50 0.9028266
639.60 0.9026914
639.70 0.902555
639.80 0.9024142
639.90 0.9022735
640.00 0.9021329
640.10 0.9019923
640.20 0.9018517
640.30 0.9017112
640.40 0.9015707
640.50 0.9014303
640.60 0.9012899
640.70 0.9011495
640.80 0.9010092
640.90 0.900869
641.00 0.9007288
641.10 0.9005886
641.20 0.9004485
641.30 0.9003084
641.40 0.9001683
641.50 0.9000283
641.60 0.8998884
641.70 0.8997485
641.80 0.8996086
641.90 0.8994688
642.00 0.899329
642.10 0.8991893
642.20 0.8990496
642.30 0.8989099
642.40 0.8987703
642.50 0.8986307
642.60 0.8984912
642.70 0.8983517
642.80 0.8982123
642.90 0.8980719
643.00 0.8979285
643.10 0.8977851
643.20 0.8976418
643.30 0.8974985
643.40 0.8973553
643.50 0.8972121
643.60 0.8970689
643.70 0.8969258
643.80 0.8967828
643.90 0.8966398
644.00 0.8964968
644.10 0.8963539
644.20 0.896211
644.30 0.8960682
644.40 0.8959254
644.50 0.8957827
644.60 0.89564
644.70 0.8954973
644.80 0.8953547
644.90 0.8952122
645.00 0.8950697
645.10 0.8949272
645.20 0.8947848
645.30 0.8946424
645.40 0.8945001
645.50 0.8943578
645.60 0.8942156
645.70 0.8940734
645.80 0.8939312
645.90 0.8937891
646.00 0.893647
646.10 0.8935047
646.20 0.8933614
646.30 0.8932181
646.40 0.8930749
646.50 0.8929318
646.60 0.8927886
646.70 0.8926456
646.80 0.8925025
646.90 0.8923596
647.00 0.8922166
647.10 0.8920737
647.20 0.8919309
647.30 0.8917881
647.40 0.8916454
647.50 0.8915026
647.60 0.89136
647.70 0.8912174
647.80 0.8910748
647.90 0.8909323
648.00 0.8907898
648.10 0.8906474
648.20 0.890505
648.30 0.8903626
648.40 0.8902203
648.50 0.8900781
648.60 0.8899359
648.70 0.8897937
648.80 0.8896516
648.90 0.8895095
649.00 0.8893675
649.10 0.8892255
649.20 0.8890836
649.30 0.8889417
649.40 0.8887998
649.50 0.888658
649.60 0.8885162
649.70 0.8883745
649.80 0.8882328
649.90 0.8880911
650.00 0.8879495
650.10 0.8878079
650.20 0.8876664
650.30 0.8875249
650.40 0.8873835
650.50 0.8872421
650.60 0.8871008
650.70 0.8869595
650.80 0.8868182
650.90 0.886677
651.00 0.8865358
651.10 0.8863947
651.20 0.8862536
651.30 0.8861126
651.40 0.8859716
651.50 0.8858307
651.60 0.8856898
651.70 0.885549
651.80 0.8854082
651.90 0.8852674
652.00 0.8851267
652.10 0.884986
652.20 0.8848454
652.30 0.8847048
652.40 0.8845643
652.50 0.8844238
652.60 0.8842798
652.70 0.8841341
652.80 0.8839884
652.90 0.8838427
653.00 0.8836971
653.10 0.8835515
653.20 0.883406
653.30 0.8832606
653.40 0.8831151
653.50 0.8829698
653.60 0.8828244
653.70 0.8826792
653.80 0.8825339
653.90 0.8823887
654.00 0.8822436
654.10 0.8820985
654.20 0.8819535
654.30 0.8818085
654.40 0.8816635
654.50 0.8815186
654.60 0.8813738
654.70 0.881229
654.80 0.8810842
654.90 0.8809395
655.00 0.8807949
655.10 0.8806502
655.20 0.8805057
655.30 0.8803612
655.40 0.8802167
655.50 0.8800723
655.60 0.8799279
655.70 0.8797835
655.80 0.8796355
655.90 0.8794876
656.00 0.8793397
656.10 0.8791918
656.20 0.879044
656.30 0.8788962
656.40 0.8787485
656.50 0.8786008
656.60 0.8784532
656.70 0.8783056
656.80 0.8781581
656.90 0.8780106
657.00 0.8778632
657.10 0.8777158
657.20 0.8775685
657.30 0.8774212
657.40 0.877274
657.50 0.8771268
657.60 0.8769797
657.70 0.8768326
657.80 0.8767849
657.90 0.8766456
658.00 0.8764903
658.10 0.876335
658.20 0.8761798
658.30 0.8760247
658.40 0.8758696
658.50 0.8757145
658.60 0.8755595
658.70 0.8754045
658.80 0.8752497
658.90 0.8750948
659.00 0.87494
659.10 0.8748126
659.20 0.8747262
659.30 0.8745732
659.40 0.8744203
659.50 0.8742674
659.60 0.8741146
659.70 0.8739618
659.80 0.8738091
659.90 0.8736564
660.00 0.8735038
660.10 0.8733512
660.20 0.8731987
660.30 0.8730463
660.40 0.8729081
660.50 0.8727724
660.60 0.8726369
660.70 0.8725013
660.80 0.8723658
660.90 0.872214
661.00 0.8720623
661.10 0.8719106
661.20 0.871759
661.30 0.8716074
661.40 0.8714559
661.50 0.8713044
661.60 0.871153
661.70 0.8710016
661.80 0.8708503
661.90 0.8707079
662.00 0.8705655
662.10 0.8704231
662.20 0.8702808
662.30 0.8701385
662.40 0.870018
662.50 0.8698794
662.60 0.8697409
662.70 0.8696024
662.80 0.869464
662.90 0.8693256
663.00 0.8691872
663.10 0.868987
663.20 0.8688487
663.30 0.8687105
663.40 0.8685105
663.50 0.8683724
663.60 0.8682344
663.70 0.8680877
663.80 0.8679412
663.90 0.8678105
664.00 0.8676826
664.10 0.8675242
664.20 0.8673658
664.30 0.8672075
664.40 0.8670493
664.50 0.8668911
664.60 0.866733
664.70 0.8665932
664.80 0.8664534
664.90 0.8663137
665.00 0.8661741
665.10 0.8660344
665.20 0.8658949
665.30 0.8657553
665.40 0.8656158
665.50 0.8654303
665.60 0.8652367
665.70 0.8651548
665.80 0.8650075
665.90 0.8648602
666.00 0.864713
666.10 0.8645658
666.20 0.8644187
666.30 0.8642716
666.40 0.8641246
666.50 0.863969
666.60 0.8638119
666.70 0.8636548
666.80 0.8634979
666.90 0.8633409
667.00 0.8631841
667.10 0.863053
667.20 0.8629266
667.30 0.8627817
667.40 0.8626369
667.50 0.8624994
667.60 0.8623632
667.70 0.8621385
667.80 0.8620253
667.90 0.8618663
668.00 0.8617151
668.10 0.8615608
668.20 0.8614249
668.30 0.8612891
668.40 0.8611532
668.50 0.8610175
668.60 0.8608817
668.70 0.8606425
668.80 0.8605034
668.90 0.8603642
669.00 0.8602252
669.10 0.8600861
669.20 0.8599471
669.30 0.8598009
669.40 0.8596534
669.50 0.8595059
669.60 0.8593585
669.70 0.8592111
669.80 0.8590638
669.90 0.8589166
670.00 0.8587694
670.10 0.8586222
670.20 0.8584751
670.30 0.8583203
670.40 0.8581642
670.50 0.8580081
670.60 0.8578521
670.70 0.8576961
670.80 0.8575489
670.90 0.8574018
671.00 0.8572547
671.10 0.8571077
671.20 0.8569607
671.30 0.8568138
671.40 0.8566669
671.50 0.8565201
671.60 0.8563733
671.70 0.8562265
671.80 0.8560799
671.90 0.8559246
672.00 0.8557679
672.10 0.8556113
672.20 0.8554547
672.30 0.8552982
672.40 0.855151
672.50 0.8550045
672.60 0.8548581
672.70 0.8547118
672.80 0.8545655
672.90 0.8544193
673.00 0.8542731
673.10 0.8541269
673.20 0.8539808
673.30 0.8538316
673.40 0.8536804
673.50 0.853529
673.60 0.8533776
673.70 0.8532262
673.80 0.8530749
673.90 0.8529237
674.00 0.8527725
674.10 0.8526213
674.20 0.8524703
674.30 0.8523192
674.40 0.8521682
674.50 0.8520173
674.60 0.8518664
674.70 0.8517156
674.80 0.8515648
674.90 0.8514141
675.00 0.8512634
675.10 0.8511128
675.20 0.8509622
675.30 0.8508117
675.40 0.8506602
675.50 0.8505086
675.60 0.8503571
675.70 0.8502056
675.80 0.8500541
675.90 0.8499027
676.00 0.8497514
676.10 0.8496001
676.20 0.8494488
676.30 0.8492976
676.40 0.8491465
676.50 0.8489954
676.60 0.8488444
676.70 0.8486934
676.80 0.8485425
676.90 0.8483916
677.00 0.8482408
677.10 0.84809
677.20 0.8479393
677.30 0.8477886
677.40 0.847638
677.50 0.8474874
677.60 0.8473369
677.70 0.8471865
677.80 0.8470361
677.90 0.846884
678.00 0.8467317
678.10 0.8465794
678.20 0.8464272
678.30 0.8462751
678.40 0.846123
678.50 0.8459709
678.60 0.8458189
678.70 0.845667
678.80 0.8455151
678.90 0.8453633
679.00 0.8452115
679.10 0.8450587
679.20 0.8449055
679.30 0.8447523
679.40 0.8445992
679.50 0.8444461
679.60 0.8442931
679.70 0.8441402
679.80 0.8439873
679.90 0.8438345
680.00 0.8436817
680.10 0.8435289
680.20 0.8433763
680.30 0.8432236
680.40 0.8430711
680.50 0.8429185
680.60 0.8427661
680.70 0.8426137
680.80 0.8424613
680.90 0.842309
681.00 0.8421567
681.10 0.8420045
681.20 0.8418524
681.30 0.8417003
681.40 0.8415482
681.50 0.8413963
681.60 0.8412443
681.70 0.8410924
681.80 0.8409406
681.90 0.8407888
682.00 0.8406371
682.10 0.8404854
682.20 0.8403338
682.30 0.8401822
682.40 0.8400307
682.50 0.8398793
682.60 0.8397279
682.70 0.8395765
682.80 0.8394252
682.90 0.839274
683.00 0.8391228
683.10 0.8389716
683.20 0.8388205
683.30 0.8386695
683.40 0.8385185
683.50 0.8383676
683.60 0.8382167
683.70 0.8380658
683.80 0.8379151
683.90 0.8377643
684.00 0.8376137
684.10 0.837463
684.20 0.8373125
684.30 0.837162
684.40 0.8370115
684.50 0.8368611
684.60 0.8367107
684.70 0.8365604
684.80 0.8364102
684.90 0.83626
685.00 0.8361098
685.10 0.8359597
685.20 0.8358097
685.30 0.8356597
685.40 0.8355097
685.50 0.8353598
685.60 0.83521
685.70 0.8350602
685.80 0.8349105
685.90 0.8347573
686.00 0.8346034
686.10 0.8344495
686.20 0.8342956
686.30 0.8341419
686.40 0.8339881
686.50 0.8338345
686.60 0.8336808
686.70 0.8335273
686.80 0.8333737
686.90 0.8332203
687.00 0.8330669
687.10 0.8329135
687.20 0.8327602
687.30 0.832607
687.40 0.8324538
687.50 0.8323007
687.60 0.8321476
687.70 0.8319945
687.80 0.8318416
687.90 0.8316887
688.00 0.8315358
688.10 0.831383
688.20 0.8312302
688.30 0.8310775
688.40 0.8309248
688.50 0.8307722
688.60 0.8306197
688.70 0.8304672
688.80 0.8303148
688.90 0.8301624
689.00 0.8300101
689.10 0.8298578
689.20 0.8297056
689.30 0.8295534
689.40 0.8294013
689.50 0.8292492
689.60 0.8290972
689.70 0.8289452
689.80 0.8287933
689.90 0.8286415
690.00 0.8284897
690.10 0.8283379
690.20 0.8281862
690.30 0.8280346
690.40 0.827883
690.50 0.8277315
690.60 0.82758
690.70 0.8274286
690.80 0.8272772
690.90 0.8271259
691.00 0.8269746
691.10 0.8268234
691.20 0.8266722
691.30 0.8265211
691.40 0.8263701
691.50 0.8262191
691.60 0.8260681
691.70 0.8259172
691.80 0.8257664
691.90 0.8256156
692.00 0.8254648
692.10 0.8253142
692.20 0.8251635
692.30 0.8250129
692.40 0.8248624
692.50 0.8247119
692.60 0.8245615
692.70 0.8244107
692.80 0.8242584
692.90 0.8241062
693.00 0.823954
693.10 0.8238018
693.20 0.8236497
693.30 0.8234977
693.40 0.8233457
693.50 0.8231938
693.60 0.8230419
693.70 0.8228901
693.80 0.8227383
693.90 0.8225866
694.00 0.8224349
694.10 0.8222833
694.20 0.8221318
694.30 0.8219803
694.40 0.8218288
694.50 0.8216774
694.60 0.8215261
694.70 0.8213748
694.80 0.8212235
694.90 0.8210724
695.00 0.8209212
695.10 0.8207701
695.20 0.8206191
695.30 0.8204681
695.40 0.8203172
695.50 0.8201664
695.60 0.8200155
695.70 0.8198648
695.80 0.8197141
695.90 0.8195634
696.00 0.8194128
696.10 0.8192623
696.20 0.8191118
696.30 0.8189613
696.40 0.8188109
696.50 0.8186606
696.60 0.8185071
696.70 0.8183529
696.80 0.8181988
696.90 0.8180447
697.00 0.8178907
697.10 0.8177367
697.20 0.8175828
697.30 0.817429
697.40 0.8172752
697.50 0.8171214
697.60 0.8169677
697.70 0.8168141
697.80 0.8166605
697.90 0.816507
698.00 0.8163535
698.10 0.8162001
698.20 0.8160467
698.30 0.8158934
698.40 0.8157401
698.50 0.8155869
698.60 0.8154338
698.70 0.8152807
698.80 0.8151277
698.90 0.8149747
699.00 0.8148217
699.10 0.8146655
699.20 0.8145085
699.30 0.8143516
699.40 0.8141947
699.50 0.8140379
699.60 0.8138811
699.70 0.813727
699.80 0.8135731
699.90 0.8134192
700.00 0.8132654
700.10 0.8131117
700.20 0.812958
700.30 0.8128044
700.40 0.8126508
700.50 0.8124972
700.60 0.8123438
700.70 0.8121903
700.80 0.812037
700.90 0.8118837
701.00 0.8117304
701.10 0.8115736
701.20 0.8114159
701.30 0.8112584
701.40 0.8111008
701.50 0.8109434
701.60 0.8107859
701.70 0.8106286
701.80 0.8104713
701.90 0.8103141
702.00 0.8101569
702.10 0.8099997
702.20 0.8098427
702.30 0.8096857
702.40 0.8095287
702.50 0.8093718
702.60 0.8092168
702.70 0.8090623
702.80 0.8089079
702.90 0.8087535
703.00 0.8085992
703.10 0.8084449
703.20 0.8082907
703.30 0.8081365
703.40 0.8079824
703.50 0.8078284
703.60 0.8076744
703.70 0.8075205
703.80 0.8073666
703.90 0.8072127
704.00 0.807059
704.10 0.8069052
704.20 0.8067527
704.30 0.8066004
704.40 0.8064483
704.50 0.8062961
704.60 0.806144
704.70 0.805992
704.80 0.8058401
704.90 0.8056881
705.00 0.8055363
705.10 0.8053845
705.20 0.8052297
705.30 0.8050744
705.40 0.8049191
705.50 0.8047639
705.60 0.8046087
705.70 0.8044536
705.80 0.8043059
705.90 0.80416
706.00 0.8040141
706.10 0.8038683
706.20 0.8037004
706.30 0.8035274
706.40 0.8034194
706.50 0.8032206
706.60 0.8030737
706.70 0.8029555
706.80 0.8027724
706.90 0.8025998
707.00 0.8024493
707.10 0.802304
707.20 0.8021588
707.30 0.8020136
707.40 0.8018612
707.50 0.801707
707.60 0.8015529
707.70 0.8013989
707.80 0.8012449
707.90 0.801091
708.00 0.8009401
708.10 0.8007899
708.20 0.8006397
708.30 0.8004897
708.40 0.8003396
708.50 0.8001896
708.60 0.8000397
708.70 0.7998898
708.80 0.79974
708.90 0.7995902
709.00 0.7994339
709.10 0.7992762
709.20 0.7991184
709.30 0.7989608
709.40 0.7988032
709.50 0.7986456
709.60 0.7984881
709.70 0.7983307
709.80 0.7981733
709.90 0.798016
710.00 0.7978587
710.10 0.7977015
710.20 0.7975443
710.30 0.7973872
710.40 0.7972302
710.50 0.7970732
710.60 0.7969199
710.70 0.7967675
710.80 0.7966152
710.90 0.7964629
711.00 0.7963107
711.10 0.7961585
711.20 0.7960064
711.30 0.7958544
711.40 0.7957024
711.50 0.7955504
711.60 0.7953985
711.70 0.7952467
711.80 0.7950949
711.90 0.7949432
712.00 0.7947915
712.10 0.7946346
712.20 0.7944767
712.30 0.7943187
712.40 0.7941608
712.50 0.794003
712.60 0.7938452
712.70 0.7936875
712.80 0.7935299
712.90 0.7933723
713.00 0.7932147
713.10 0.7930573
713.20 0.7928998
713.30 0.7927425
713.40 0.7925852
713.50 0.7924279
713.60 0.7922707
713.70 0.7921222
713.80 0.7919914
713.90 0.7918606
714.00 0.7917298
714.10 0.7915773
714.20 0.7914197
714.30 0.7912621
714.40 0.7911046
714.50 0.7909472
714.60 0.7907898
714.70 0.7906325
714.80 0.7904752
714.90 0.790318
715.00 0.7901609
715.10 0.7900038
715.20 0.7898467
715.30 0.7896898
715.40 0.7895328
715.50 0.789376
715.60 0.7892192
715.70 0.7890624
715.80 0.7889057
715.90 0.7887491
716.00 0.7885925
716.10 0.788436
716.20 0.7882795
716.30 0.7881231
716.40 0.7879668
716.50 0.7878105
716.60 0.7876558
716.70 0.7875016
716.80 0.7873475
716.90 0.7871934
717.00 0.7870394
717.10 0.7868854
717.20 0.7867315
717.30 0.7865777
717.40 0.7864239
717.50 0.7862701
717.60 0.7861164
717.70 0.7859628
717.80 0.7858092
717.90 0.7856557
718.00 0.7855022
718.10 0.7853488
718.20 0.7851941
718.30 0.7850388
718.40 0.7848836
718.50 0.7847284
718.60 0.7845733
718.70 0.7844182
718.80 0.7842632
718.90 0.7841083
719.00 0.7839534
719.10 0.7837985
719.20 0.7836437
719.30 0.783489
719.40 0.7833343
719.50 0.7831797
719.60 0.7830251
719.70 0.7828706
719.80 0.7827162
719.90 0.7825618
720.00 0.7824074
720.10 0.7822531
720.20 0.7820989
720.30 0.7819447
720.40 0.7817906
720.50 0.7816365
720.60 0.7814825
720.70 0.781328
720.80 0.7811732
720.90 0.7810194
721.00 0.7808657
721.10 0.7807121
721.20 0.7805585
721.30 0.7804049
721.40 0.7802514
721.50 0.780098
721.60 0.7799446
721.70 0.7797913
721.80 0.779638
721.90 0.7794848
722.00 0.7793317
722.10 0.7791786
722.20 0.7790255
722.30 0.7788725
722.40 0.7787196
722.50 0.7785667
722.60 0.7784139
722.70 0.7782611
722.80 0.7781083
722.90 0.7779555
723.00 0.7778028
723.10 0.7776502
723.20 0.7774976
723.30 0.7773451
723.40 0.7771926
723.50 0.7770402
723.60 0.7768878
723.70 0.7767355
723.80 0.7765833
723.90 0.7764311
724.00 0.7762789
724.10 0.7761268
724.20 0.7759723
724.30 0.7758164
724.40 0.7756606
724.50 0.7755048
724.60 0.7753491
724.70 0.7751935
724.80 0.7750379
724.90 0.7748824
725.00 0.7747269
725.10 0.7745715
725.20 0.7744161
725.30 0.7742608
725.40 0.7741055
725.50 0.7739503
725.60 0.7737952
725.70 0.7736401
725.80 0.7734876
725.90 0.7733365
726.00 0.7731855
726.10 0.7730345
726.20 0.7728835
726.30 0.7727327
726.40 0.7725818
726.50 0.7724311
726.60 0.7722803
726.70 0.7721297
726.80 0.7719723
726.90 0.7718115
727.00 0.7716507
727.10 0.7714899
727.20 0.7713293
727.30 0.7711686
727.40 0.7710081
727.50 0.7708476
727.60 0.7706871
727.70 0.7705267
727.80 0.7703998
727.90 0.7702909
728.00 0.7701153
728.10 0.7699101
728.20 0.769795
728.30 0.7696862
728.40 0.7695083
728.50 0.7693483
728.60 0.7691884
728.70 0.7690286
728.80 0.7688688
728.90 0.7687091
729.00 0.7685495
729.10 0.7683899
729.20 0.7682303
729.30 0.7680709
729.40 0.7679115
729.50 0.7677521
729.60 0.7675994
729.70 0.7674504
729.80 0.7673015
729.90 0.7671525
730.00 0.7670037
730.10 0.7668549
730.20 0.7667061
730.30 0.7665574
730.40 0.7664088
730.50 0.7662602
730.60 0.7661091
730.70 0.7659568
730.80 0.7658046
730.90 0.7656524
731.00 0.7655002
731.10 0.7653481
731.20 0.7651961
731.30 0.7650441
731.40 0.7648922
731.50 0.7647403
731.60 0.7645885
731.70 0.7644367
731.80 0.764285
731.90 0.7641333
732.00 0.7639817
732.10 0.7638302
732.20 0.7636767
732.30 0.7635223
732.40 0.763368
732.50 0.7632137
732.60 0.7630595
732.70 0.7629053
732.80 0.7627512
732.90 0.7625971
733.00 0.7624431
733.10 0.7622891
733.20 0.7621352
733.30 0.7619814
733.40 0.7618276
733.50 0.7616738
733.60 0.7615202
733.70 0.7613632
733.80 0.7612045
733.90 0.7610459
734.00 0.7608874
734.10 0.7607289
734.20 0.7605704
734.30 0.760412
734.40 0.7602537
734.50 0.7600954
734.60 0.7599372
734.70 0.759779
734.80 0.759621
734.90 0.7594629
735.00 0.7593049
735.10 0.759147
735.20 0.7589891
735.30 0.7588321
735.40 0.7586845
735.50 0.7585369
735.60 0.7583893
735.70 0.7582377
735.80 0.7580839
735.90 0.7579302
736.00 0.7577765
736.10 0.7576229
736.20 0.7574693
736.30 0.7573158
736.40 0.7571624
736.50 0.757009
736.60 0.7568556
736.70 0.7567023
736.80 0.7565491
736.90 0.7563959
737.00 0.7562428
737.10 0.7560897
737.20 0.7559367
737.30 0.7557838
737.40 0.7556309
737.50 0.755478
737.60 0.7553252
737.70 0.7551725
737.80 0.7550198
737.90 0.7548672
738.00 0.7547146
738.10 0.7545621
738.20 0.754409
738.30 0.7542556
738.40 0.7541022
738.50 0.7539489
738.60 0.7537957
738.70 0.7536425
738.80 0.7534893
738.90 0.7533363
739.00 0.7531833
739.10 0.7530303
739.20 0.7528774
739.30 0.7527245
739.40 0.7525717
739.50 0.752419
739.60 0.7522663
739.70 0.7521137
739.80 0.7519611
739.90 0.7518085
740.00 0.7516561
740.10 0.7515037
740.20 0.7513513
740.30 0.751199
740.40 0.7510467
740.50 0.7508946
740.60 0.7507424
740.70 0.7505903
740.80 0.7504383
740.90 0.7502863
741.00 0.7501344
741.10 0.7499825
741.20 0.7498307
741.30 0.749679
741.40 0.7495273
741.50 0.7493756
741.60 0.749224
741.70 0.7490725
741.80 0.748921
741.90 0.7487696
742.00 0.7486182
742.10 0.7484669
742.20 0.7483156
742.30 0.7481644
742.40 0.7480132
742.50 0.7478621
742.60 0.7477111
742.70 0.7475586
742.80 0.747405
742.90 0.7472515
743.00 0.747098
743.10 0.7469446
743.20 0.7467912
743.30 0.7466379
743.40 0.7464846
743.50 0.7463314
743.60 0.7461783
743.70 0.7460246
743.80 0.7458687
743.90 0.7457128
744.00 0.745557
744.10 0.7454012
744.20 0.7452455
744.30 0.7450898
744.40 0.7449343
744.50 0.7447787
744.60 0.7446232
744.70 0.7444678
744.80 0.7443125
744.90 0.7441571
745.00 0.7440019
745.10 0.7438467
745.20 0.7436916
745.30 0.7435365
745.40 0.7433814
745.50 0.7432265
745.60 0.7430716
745.70 0.7429167
745.80 0.7427619
745.90 0.7426072
746.00 0.7424525
746.10 0.7422978
746.20 0.7421433
746.30 0.7419887
746.40 0.7418343
746.50 0.7416799
746.60 0.7415255
746.70 0.7413712
746.80 0.741217
746.90 0.7410628
747.00 0.7409087
747.10 0.7407546
747.20 0.7406006
747.30 0.7404466
747.40 0.7402927
747.50 0.7401389
747.60 0.7399851
747.70 0.7398314
747.80 0.7396777
747.90 0.739524
748.00 0.7393705
748.10 0.739217
748.20 0.7390635
748.30 0.7389101
748.40 0.7387568
748.50 0.7386035
748.60 0.7384502
748.70 0.7382971
748.80 0.7381439
748.90 0.7379909
749.00 0.7378378
749.10 0.7376849
749.20 0.737532
749.30 0.7373791
749.40 0.7372263
749.50 0.7370736
749.60 0.7369209
749.70 0.7367683
749.80 0.7366157
749.90 0.7364632
750.00 0.7363108
750.10 0.7361583
750.20 0.736006
750.30 0.7358536
750.40 0.7357014
750.50 0.7355491
750.60 0.735397
750.70 0.7352449
750.80 0.7350928
750.90 0.7349408
751.00 0.7347889
751.10 0.734637
751.20 0.7344851
751.30 0.7343333
751.40 0.7341816
751.50 0.73403
751.60 0.7338783
751.70 0.7337268
751.80 0.7335753
751.90 0.7334238
752.00 0.7332724
752.10 0.7331211
752.20 0.7329698
752.30 0.7328185
752.40 0.7326674
752.50 0.7325162
752.60 0.7323652
752.70 0.7322142
752.80 0.7320632
752.90 0.7319123
753.00 0.7317614
753.10 0.7316106
753.20 0.7314599
753.30 0.7313092
753.40 0.7311586
753.50 0.731008
753.60 0.7308575
753.70 0.730707
753.80 0.7305566
753.90 0.7304042
754.00 0.7302513
754.10 0.7300985
754.20 0.7299458
754.30 0.7297931
754.40 0.7296404
754.50 0.7294878
754.60 0.7293353
754.70 0.7291828
754.80 0.7290304
754.90 0.728878
755.00 0.7287257
755.10 0.7285735
755.20 0.7284213
755.30 0.7282691
755.40 0.728117
755.50 0.727965
755.60 0.727813
755.70 0.7276611
755.80 0.7275092
755.90 0.7273574
756.00 0.7272056
756.10 0.7270539
756.20 0.7269023
756.30 0.7267507
756.40 0.7265991
756.50 0.7264476
756.60 0.7262962
756.70 0.7261448
756.80 0.7259935
756.90 0.7258422
757.00 0.725691
757.10 0.7255399
757.20 0.7253888
757.30 0.7252377
757.40 0.7250867
757.50 0.7249358
757.60 0.7247848
757.70 0.7246335
757.80 0.7244823
757.90 0.7243312
758.00 0.7241801
758.10 0.7240291
758.20 0.7238781
758.30 0.7237272
758.40 0.7235764
758.50 0.7234256
758.60 0.7232748
758.70 0.7231241
758.80 0.7229735
758.90 0.7228229
759.00 0.7226724
759.10 0.7225219
759.20 0.7223715
759.30 0.7222211
759.40 0.7220708
759.50 0.7219205
759.60 0.7217703
759.70 0.7216202
759.80 0.7214701
759.90 0.72132
760.00 0.72117
760.10 0.7210201
760.20 0.7208702
760.30 0.7207204
760.40 0.7205706
760.50 0.7204209
760.60 0.7202712
760.70 0.7201216
760.80 0.719972
760.90 0.7198225
761.00 0.7196731
761.10 0.7195237
761.20 0.7193743
761.30 0.719225
761.40 0.7190748
761.50 0.7189231
761.60 0.7187715
761.70 0.71862
761.80 0.7184685
761.90 0.718317
762.00 0.7181656
762.10 0.7180143
762.20 0.717863
762.30 0.7177118
762.40 0.7175606
762.50 0.7174095
762.60 0.7172585
762.70 0.7171074
762.80 0.7169565
762.90 0.7168056
763.00 0.7166548
763.10 0.716504
763.20 0.7163532
763.30 0.7162026
763.40 0.7160519
763.50 0.7159014
763.60 0.7157508
763.70 0.7156004
763.80 0.71545
763.90 0.7152996
764.00 0.7151493
764.10 0.7149991
764.20 0.7148489
764.30 0.7146987
764.40 0.7145487
764.50 0.7143986
764.60 0.7142486
764.70 0.7140987
764.80 0.7139489
764.90 0.713799
765.00 0.7136493
765.10 0.7134996
765.20 0.7133485
765.30 0.7131961
765.40 0.7130437
765.50 0.7128915
765.60 0.7127392
765.70 0.7125871
765.80 0.7124349
765.90 0.7122829
766.00 0.7121309
766.10 0.7119789
766.20 0.711827
766.30 0.7116752
766.40 0.7115234
766.50 0.7113717
766.60 0.71122
766.70 0.7110684
766.80 0.7109168
766.90 0.7107653
767.00 0.7106138
767.10 0.7104624
767.20 0.7103111
767.30 0.7101598
767.40 0.7100086
767.50 0.7098574
767.60 0.7097062
767.70 0.7095552
767.80 0.7094042
767.90 0.7092532
768.00 0.7091023
768.10 0.7089514
768.20 0.7088006
768.30 0.7086499
768.40 0.7084992
768.50 0.7083485
768.60 0.708198
768.70 0.7080474
768.80 0.707897
768.90 0.7077465
769.00 0.7075962
769.10 0.7074459
769.20 0.7072956
769.30 0.7071454
769.40 0.7069952
769.50 0.7068452
769.60 0.7066951
769.70 0.7065451
769.80 0.7063952
769.90 0.7062453
770.00 0.7060955
770.10 0.7059457
770.20 0.705796
770.30 0.7056463
770.40 0.7054967
770.50 0.7053472
770.60 0.7051977
770.70 0.7050482
770.80 0.7048988
770.90 0.7047495
771.00 0.7046002
771.10 0.704451
771.20 0.7043018
771.30 0.7041527
771.40 0.7040036
771.50 0.7038546
771.60 0.7037056
771.70 0.7035567
771.80 0.7034079
771.90 0.7032591
772.00 0.7031103
772.10 0.7029616
772.20 0.702813
772.30 0.7026644
772.40 0.7025158
772.50 0.7023674
772.60 0.7022189
772.70 0.7020706
772.80 0.7019222
772.90 0.7017713
773.00 0.7016204
773.10 0.7014695
773.20 0.7013187
773.30 0.701168
773.40 0.7010173
773.50 0.7008667
773.60 0.7007161
773.70 0.7005656
773.80 0.7004151
773.90 0.7002647
774.00 0.7001144
774.10 0.6999641
774.20 0.6998138
774.30 0.6996636
774.40 0.6995135
774.50 0.6993634
774.60 0.6992134
774.70 0.6990634
774.80 0.6989135
774.90 0.6987636
775.00 0.6986138
775.10 0.698464
775.20 0.6983143
775.30 0.6981646
775.40 0.698015
775.50 0.6978655
775.60 0.697716
775.70 0.6975666
775.80 0.6974172
775.90 0.6972679
776.00 0.6971186
776.10 0.6969694
776.20 0.6968202
776.30 0.6966711
776.40 0.696522
776.50 0.696373
776.60 0.6962241
776.70 0.6960752
776.80 0.6959263
776.90 0.6957775
777.00 0.6956288
777.10 0.6954801
777.20 0.6953315
777.30 0.6951829
777.40 0.6950344
777.50 0.6948859
777.60 0.6947375
777.70 0.6945891
777.80 0.6944408
777.90 0.6942925
778.00 0.6941443
778.10 0.6939962
778.20 0.6938481
778.30 0.6937
778.40 0.693552
778.50 0.6934041
778.60 0.6932562
778.70 0.6931084
778.80 0.6929606
778.90 0.6928129
779.00 0.6926652
779.10 0.6925176
779.20 0.69237
779.30 0.6922225
779.40 0.692075
779.50 0.6919276
779.60 0.6917803
779.70 0.691633
779.80 0.6914857
779.90 0.6913385
780.00 0.6911914
780.10 0.6910443
780.20 0.6908972
780.30 0.6907503
780.40 0.6906033
780.50 0.6904564
780.60 0.6903071
780.70 0.6901568
780.80 0.6900065
780.90 0.6898563
781.00 0.6897061
781.10 0.6895561
781.20 0.689406
781.30 0.689256
781.40 0.6891061
781.50 0.6889562
781.60 0.6888064
781.70 0.6886566
781.80 0.6885069
781.90 0.6883573
782.00 0.6882077
782.10 0.6880581
782.20 0.6879086
782.30 0.6877592
782.40 0.6876098
782.50 0.6874604
782.60 0.6873112
782.70 0.6871619
782.80 0.6870128
782.90 0.6868636
783.00 0.6867146
783.10 0.6865656
783.20 0.6864166
783.30 0.6862677
783.40 0.6861188
783.50 0.68597
783.60 0.6858213
783.70 0.6856726
783.80 0.685524
783.90 0.6853754
784.00 0.6852269
784.10 0.6850784
784.20 0.68493
784.30 0.6847816
784.40 0.6846333
784.50 0.684485
784.60 0.6843374
784.70 0.6841912
784.80 0.684045
784.90 0.6838989
785.00 0.6837529
785.10 0.6836069
785.20 0.6834609
785.30 0.683315
785.40 0.6831692
785.50 0.6830234
785.60 0.6828776
785.70 0.6827319
785.80 0.6825863
785.90 0.6824407
786.00 0.6822952
786.10 0.6821497
786.20 0.6820043
786.30 0.6818589
786.40 0.6817136
786.50 0.6815683
786.60 0.6814231
786.70 0.6812779
786.80 0.6811328
786.90 0.6809877
787.00 0.6808427
787.10 0.6806978
787.20 0.6805528
787.30 0.680408
787.40 0.6802632
787.50 0.6801184
787.60 0.6799737
787.70 0.6798291
787.80 0.6796845
787.90 0.6795399
788.00 0.6793954
788.10 0.679251
788.20 0.6791066
788.30 0.6789622
788.40 0.6788156
788.50 0.6786679
788.60 0.6785202
788.70 0.6783726
788.80 0.678225
788.90 0.6780775
789.00 0.67793
789.10 0.6777826
789.20 0.6776352
789.30 0.6774879
789.40 0.6773407
789.50 0.6771935
789.60 0.6770463
789.70 0.6768992
789.80 0.6767522
789.90 0.6766052
790.00 0.6764583
790.10 0.6763114
790.20 0.6761646
790.30 0.6760178
790.40 0.6758711
790.50 0.6757244
790.60 0.6755778
790.70 0.6754312
790.80 0.6752847
790.90 0.6751382
791.00 0.6749918
791.10 0.6748454
791.20 0.6746991
791.30 0.6745529
791.40 0.6744067
791.50 0.6742605
791.60 0.6741144
791.70 0.6739684
791.80 0.6738224
791.90 0.6736765
792.00 0.6735306
792.10 0.6733847
792.20 0.673239
792.30 0.6730927
792.40 0.6729448
792.50 0.672797
792.60 0.6726492
792.70 0.6725015
792.80 0.6723538
792.90 0.6722062
793.00 0.6720587
793.10 0.6719112
793.20 0.6717637
793.30 0.6716163
793.40 0.671469
793.50 0.6713217
793.60 0.6711745
793.70 0.6710273
793.80 0.6708802
793.90 0.6707331
794.00 0.6705861
794.10 0.6704391
794.20 0.6702922
794.30 0.6701453
794.40 0.6699985
794.50 0.6698517
794.60 0.669705
794.70 0.6695584
794.80 0.6694118
794.90 0.6692652
795.00 0.6691187
795.10 0.6689723
795.20 0.6688259
795.30 0.6686795
795.40 0.6685332
795.50 0.668387
795.60 0.6682408
795.70 0.6680947
795.80 0.6679486
795.90 0.6678026
796.00 0.6676566
796.10 0.6675107
796.20 0.6673648
796.30 0.6672179
796.40 0.6670708
796.50 0.6669238
796.60 0.6667769
796.70 0.66663
796.80 0.6664831
796.90 0.6663363
797.00 0.6661896
797.10 0.6660429
797.20 0.6658963
797.30 0.6657497
797.40 0.6656031
797.50 0.6654566
797.60 0.6653102
797.70 0.6651638
797.80 0.6650175
797.90 0.6648712
798.00 0.664725
798.10 0.6645789
798.20 0.6644327
798.30 0.6642867
798.40 0.6641407
798.50 0.6639947
798.60 0.6638488
798.70 0.6637029
798.80 0.6635571
798.90 0.6634114
799.00 0.6632657
799.10 0.6631201
799.20 0.6629745
799.30 0.6628289
799.40 0.6626834
799.50 0.662538
799.60 0.6623926
799.70 0.6622473
799.80 0.662102
799.90 0.6619568
800.00 0.6618116
800.10 0.6616665
800.20 0.6615214
800.30 0.6613764
800.40 0.6612314
800.50 0.6610865
800.60 0.6609416
800.70 0.6607968
800.80 0.660652
800.90 0.6605073
801.00 0.6603627
801.10 0.6602181
801.20 0.6600735
801.30 0.659929
801.40 0.6597846
801.50 0.6596402
801.60 0.6594958
801.70 0.6593515
801.80 0.6592073
801.90 0.6590631
802.00 0.6589189
802.10 0.6587748
802.20 0.6586308
802.30 0.6584868
802.40 0.6583429
802.50 0.658199
802.60 0.6580551
802.70 0.6579114
802.80 0.6577676
802.90 0.6576239
803.00 0.6574803
803.10 0.6573367
803.20 0.6571932
803.30 0.6570497
803.40 0.6569063
803.50 0.6567629
803.60 0.6566196
803.70 0.6564763
803.80 0.6563331
803.90 0.6561899
804.00 0.6560468
804.10 0.6559037
804.20 0.6557604
804.30 0.6556162
804.40 0.6554721
804.50 0.655328
804.60 0.6551839
804.70 0.6550399
804.80 0.6548959
804.90 0.654752
805.00 0.6546082
805.10 0.6544644
805.20 0.6543206
805.30 0.6541769
805.40 0.6540333
805.50 0.6538897
805.60 0.6537461
805.70 0.6536026
805.80 0.6534592
805.90 0.6533158
806.00 0.6531724
806.10 0.6530291
806.20 0.6528859
806.30 0.6527427
806.40 0.6525996
806.50 0.6524565
806.60 0.6523134
806.70 0.6521705
806.80 0.6520275
806.90 0.6518846
807.00 0.6517418
807.10 0.651599
807.20 0.6514563
807.30 0.6513136
807.40 0.651171
807.50 0.6510284
807.60 0.6508859
807.70 0.6507434
807.80 0.650601
807.90 0.6504586
808.00 0.6503163
808.10 0.650174
808.20 0.6500317
808.30 0.6498896
808.40 0.6497474
808.50 0.6496054
808.60 0.6494633
808.70 0.6493214
808.80 0.6491794
808.90 0.6490376
809.00 0.6488957
809.10 0.648754
809.20 0.6486123
809.30 0.6484706
809.40 0.648329
809.50 0.6481874
809.60 0.6480459
809.70 0.6479044
809.80 0.647763
809.90 0.6476216
810.00 0.6474803
810.10 0.647339
810.20 0.6471978
810.30 0.6470566
810.40 0.6469155
810.50 0.6467744
810.60 0.6466334
810.70 0.6464924
810.80 0.6463515
810.90 0.6462106
811.00 0.6460698
811.10 0.645929
811.20 0.6457883
811.30 0.6456476
811.40 0.645507
811.50 0.6453664
811.60 0.6452259
811.70 0.6450854
811.80 0.644945
811.90 0.6448046
812.00 0.6446643
812.10 0.644524
812.20 0.6443838
812.30 0.6442411
812.40 0.6440978
812.50 0.6439545
812.60 0.6438113
812.70 0.6436681
812.80 0.643525
812.90 0.643382
813.00 0.643239
813.10 0.643096
813.20 0.6429531
813.30 0.6428102
813.40 0.6426674
813.50 0.6425247
813.60 0.642382
813.70 0.6422393
813.80 0.6420967
813.90 0.6419542
814.00 0.6418117
814.10 0.6416692
814.20 0.6415268
814.30 0.6413845
814.40 0.6412422
814.50 0.6410999
814.60 0.6409577
814.70 0.6408156
814.80 0.6406735
814.90 0.6405314
815.00 0.6403894
815.10 0.6402475
815.20 0.6401056
815.30 0.6399637
815.40 0.639822
815.50 0.6396802
815.60 0.6395385
815.70 0.6393969
815.80 0.6392553
815.90 0.6391137
816.00 0.6389722
816.10 0.6388308
816.20 0.6386894
816.30 0.6385481
816.40 0.6384068
816.50 0.6382655
816.60 0.6381243
816.70 0.6379832
816.80 0.6378421
816.90 0.6377011
817.00 0.6375601
817.10 0.6374191
817.20 0.6372782
817.30 0.6371374
817.40 0.6369966
817.50 0.6368559
817.60 0.6367152
817.70 0.6365745
817.80 0.6364339
817.90 0.6362934
818.00 0.6361529
818.10 0.6360124
818.20 0.635872
818.30 0.6357317
818.40 0.6355914
818.50 0.6354512
818.60 0.635311
818.70 0.6351708
818.80 0.6350307
818.90 0.6348907
819.00 0.6347507
819.10 0.6346107
819.20 0.6344708
819.30 0.6343277
819.40 0.6341824
819.50 0.6340372
819.60 0.633892
819.70 0.6337468
819.80 0.6336018
819.90 0.6334567
820.00 0.6333118
820.10 0.633166
820.20 0.6330428
820.30 0.6329235
820.40 0.632791
820.50 0.6326492
820.60 0.6325073
820.70 0.6323655
820.80 0.6322238
820.90 0.6320821
821.00 0.6319404
821.10 0.6317988
821.20 0.6316573
821.30 0.6315158
821.40 0.6313744
821.50 0.631233
821.60 0.6310916
821.70 0.6309503
821.80 0.6308091
821.90 0.6306679
822.00 0.6305268
822.10 0.6303857
822.20 0.6302446
822.30 0.6301036
822.40 0.6299627
822.50 0.6298218
822.60 0.629681
822.70 0.6295402
822.80 0.6293994
822.90 0.6292587
823.00 0.6291181
823.10 0.6289775
823.20 0.628837
823.30 0.6286965
823.40 0.628556
823.50 0.6284156
823.60 0.6282753
823.70 0.628135
823.80 0.6279948
823.90 0.6278546
824.00 0.6277144
824.10 0.6275743
824.20 0.6274343
824.30 0.6272943
824.40 0.6271543
824.50 0.6270144
824.60 0.6268746
824.70 0.6267348
824.80 0.626595
824.90 0.6264553
825.00 0.6263157
825.10 0.6261761
825.20 0.6260365
825.30 0.625897
825.40 0.6257576
825.50 0.6256182
825.60 0.6254788
825.70 0.6253395
825.80 0.6252002
825.90 0.625061
826.00 0.6249219
826.10 0.6247828
826.20 0.6246437
826.30 0.6245036
826.40 0.6243629
826.50 0.6242221
826.60 0.6240815
826.70 0.6239409
826.80 0.6238003
826.90 0.6236598
827.00 0.6235194
827.10 0.6233789
827.20 0.6232386
827.30 0.6230983
827.40 0.622958
827.50 0.6228178
827.60 0.6226776
827.70 0.6225375
827.80 0.6223975
827.90 0.6222575
828.00 0.6221175
828.10 0.6219776
828.20 0.6218377
828.30 0.6216979
828.40 0.6215581
828.50 0.6214184
828.60 0.6212789
828.70 0.6211395
828.80 0.6210001
828.90 0.6208608
829.00 0.6207216
829.10 0.6205823
829.20 0.6204432
829.30 0.6203041
829.40 0.620165
829.50 0.620026
829.60 0.619887
829.70 0.6197481
829.80 0.6196093
829.90 0.6194704
830.00 0.6193317
830.10 0.619193
830.20 0.6190543
830.30 0.6189157
830.40 0.6187771
830.50 0.6186386
830.60 0.6185001
830.70 0.6183617
830.80 0.6182233
830.90 0.618085
831.00 0.6179467
831.10 0.6178085
831.20 0.6176703
831.30 0.6175321
831.40 0.6173941
831.50 0.617256
831.60 0.617118
831.70 0.6169801
831.80 0.6168422
831.90 0.6167044
832.00 0.6165666
832.10 0.6164288
832.20 0.6162911
832.30 0.6161535
832.40 0.6160159
832.50 0.6158783
832.60 0.6157408
832.70 0.6156034
832.80 0.615466
832.90 0.6153286
833.00 0.6151913
833.10 0.615054
833.20 0.6149168
833.30 0.6147796
833.40 0.6146425
833.50 0.6145055
833.60 0.6143684
833.70 0.6142315
833.80 0.6140945
833.90 0.6139577
834.00 0.6138208
834.10 0.613684
834.20 0.6135473
834.30 0.6134106
834.40 0.613274
834.50 0.6131374
834.60 0.6130009
834.70 0.6128644
834.80 0.6127279
834.90 0.6125915
835.00 0.6124552
835.10 0.6123189
835.20 0.6121826
835.30 0.6120464
835.40 0.6119102
835.50 0.6117741
835.60 0.6116381
835.70 0.611502
835.80 0.6113661
835.90 0.6112301
836.00 0.6110943
836.10 0.6109584
836.20 0.6108227
836.30 0.6106869
836.40 0.6105512
836.50 0.6104156
836.60 0.61028
836.70 0.6101445
836.80 0.610009
836.90 0.6098728
837.00 0.6097364
837.10 0.6096
837.20 0.6094637
837.30 0.6093274
837.40 0.6091911
837.50 0.609055
837.60 0.6089188
837.70 0.6087827
837.80 0.6086467
837.90 0.6085107
838.00 0.6083747
838.10 0.6082388
838.20 0.6081029
838.30 0.6079671
838.40 0.6078314
838.50 0.6076956
838.60 0.60756
838.70 0.6074243
838.80 0.6072888
838.90 0.6071532
839.00 0.6070178
839.10 0.6068823
839.20 0.6067469
839.30 0.6066116
839.40 0.6064763
839.50 0.6063411
839.60 0.6062059
839.70 0.6060707
839.80 0.6059356
839.90 0.6058006
840.00 0.6056656
840.10 0.6055306
840.20 0.6053957
840.30 0.6052608
840.40 0.605126
840.50 0.6049912
840.60 0.6048565
840.70 0.6047218
840.80 0.6045872
840.90 0.6044526
841.00 0.6043181
841.10 0.604182
841.20 0.6040457
841.30 0.6039095
841.40 0.6037733
841.50 0.6036372
841.60 0.6035011
841.70 0.603365
841.80 0.603229
841.90 0.6030931
842.00 0.6029572
842.10 0.6028213
842.20 0.6026855
842.30 0.6025497
842.40 0.602414
842.50 0.6022784
842.60 0.6021427
842.70 0.6020072
842.80 0.6018716
842.90 0.6017362
843.00 0.6016007
843.10 0.6014654
843.20 0.60133
843.30 0.6011947
843.40 0.6010595
843.50 0.6009243
843.60 0.6007892
843.70 0.6006541
843.80 0.600519
843.90 0.600384
844.00 0.6002491
844.10 0.6001141
844.20 0.5999793
844.30 0.5998445
844.40 0.5997097
844.50 0.599575
844.60 0.5994403
844.70 0.5993057
844.80 0.5991711
844.90 0.5990366
845.00 0.5989021
845.10 0.5987676
845.20 0.5986332
845.30 0.598497
845.40 0.5983608
845.50 0.5982247
845.60 0.5980886
845.70 0.5979526
845.80 0.5978166
845.90 0.5976807
846.00 0.5975448
846.10 0.597409
846.20 0.5972732
846.30 0.5971374
846.40 0.5970017
846.50 0.5968661
846.60 0.5967305
846.70 0.5965949
846.80 0.5964594
846.90 0.596324
847.00 0.5961886
847.10 0.5960532
847.20 0.5959179
847.30 0.5957826
847.40 0.5956474
847.50 0.5955122
847.60 0.5953771
847.70 0.595242
847.80 0.595107
847.90 0.594972
848.00 0.594837
848.10 0.5947021
848.20 0.5945673
848.30 0.5944325
848.40 0.5942977
848.50 0.594163
848.60 0.5940284
848.70 0.5938938
848.80 0.5937592
848.90 0.5936247
849.00 0.5934902
849.10 0.5933558
849.20 0.5932214
849.30 0.5930871
849.40 0.5929528
849.50 0.5928186
849.60 0.5926844
849.70 0.5925502
849.80 0.5924161
849.90 0.5922821
850.00 0.5921481
850.10 0.5920141
850.20 0.5918802
850.30 0.5917464
850.40 0.5916125
850.50 0.5914788
850.60 0.591345
850.70 0.5912114
850.80 0.5910777
850.90 0.5909442
851.00 0.5908106
851.10 0.5906771
851.20 0.5905437
851.30 0.5904103
851.40 0.5902769
851.50 0.5901436
851.60 0.5900104
851.70 0.5898772
851.80 0.589744
851.90 0.5896109
852.00 0.5894778
852.10 0.5893448
852.20 0.5892118
852.30 0.5890789
852.40 0.588946
852.50 0.5888131
852.60 0.5886803
852.70 0.5885476
852.80 0.5884149
852.90 0.5882822
853.00 0.5881496
853.10 0.588017
853.20 0.5878845
853.30 0.587752
853.40 0.5876196
853.50 0.5874872
853.60 0.5873549
853.70 0.5872226
853.80 0.5870903
853.90 0.586958
854.00 0.5868258
854.10 0.5866937
854.20 0.5865616
854.30 0.5864295
854.40 0.5862975
854.50 0.5861655
854.60 0.5860336
854.70 0.5859017
854.80 0.5857698
854.90 0.585638
855.00 0.5855063
855.10 0.5853746
855.20 0.5852429
855.30 0.5851113
855.40 0.5849798
855.50 0.5848482
855.60 0.5847168
855.70 0.5845853
855.80 0.584454
855.90 0.5843226
856.00 0.5841913
856.10 0.5840601
856.20 0.5839289
856.30 0.5837977
856.40 0.5836666
856.50 0.5835355
856.60 0.5834045
856.70 0.5832735
856.80 0.5831426
856.90 0.5830117
857.00 0.5828809
857.10 0.5827501
857.20 0.5826193
857.30 0.5824886
857.40 0.582358
857.50 0.5822274
857.60 0.5820968
857.70 0.5819663
857.80 0.5818358
857.90 0.5817054
858.00 0.5815736
858.10 0.5814415
858.20 0.5813095
858.30 0.5811775
858.40 0.5810456
858.50 0.5809137
858.60 0.5807818
858.70 0.58065
858.80 0.5805183
858.90 0.5803865
859.00 0.5802549
859.10 0.5801233
859.20 0.5799917
859.30 0.5798602
859.40 0.5797287
859.50 0.5795972
859.60 0.5794659
859.70 0.5793345
859.80 0.5792032
859.90 0.5790719
860.00 0.5789407
860.10 0.5788096
860.20 0.5786785
860.30 0.5785474
860.40 0.5784163
860.50 0.5782854
860.60 0.5781544
860.70 0.5780235
860.80 0.5778927
860.90 0.5777619
861.00 0.5776311
861.10 0.5775004
861.20 0.5773697
861.30 0.5772391
861.40 0.5771085
861.50 0.576978
861.60 0.5768475
861.70 0.5767171
861.80 0.5765867
861.90 0.5764563
862.00 0.576326
862.10 0.5761958
862.20 0.5760653
862.30 0.5759334
862.40 0.5758016
862.50 0.5756698
862.60 0.575538
862.70 0.5754063
862.80 0.5752746
862.90 0.575143
863.00 0.5750114
863.10 0.5748798
863.20 0.5747483
863.30 0.5746169
863.40 0.5744855
863.50 0.5743541
863.60 0.5742228
863.70 0.5740916
863.80 0.5739603
863.90 0.5738292
864.00 0.573698
864.10 0.5735669
864.20 0.5734359
864.30 0.5733049
864.40 0.573174
864.50 0.573043
864.60 0.5729122
864.70 0.5727814
864.80 0.5726506
864.90 0.5725199
865.00 0.5723892
865.10 0.5722586
865.20 0.572128
865.30 0.5719974
865.40 0.5718669
865.50 0.5717365
865.60 0.5716061
865.70 0.5714757
865.80 0.5713454
865.90 0.5712151
866.00 0.5710849
866.10 0.5709547
866.20 0.5708246
866.30 0.5706945
866.40 0.5705644
866.50 0.5704344
866.60 0.5703045
866.70 0.5701745
866.80 0.5700447
866.90 0.5699149
867.00 0.5697851
867.10 0.5696553
867.20 0.5695256
867.30 0.569396
867.40 0.5692664
867.50 0.5691368
867.60 0.5690073
867.70 0.5688779
867.80 0.5687484
867.90 0.5686191
868.00 0.5684897
868.10 0.5683604
868.20 0.5682312
868.30 0.568102
868.40 0.5679728
868.50 0.5678437
868.60 0.5677147
868.70 0.5675856
868.80 0.5674567
868.90 0.5673277
869.00 0.5671988
869.10 0.56707
869.20 0.5669412
869.30 0.5668124
869.40 0.5666837
869.50 0.566555
869.60 0.5664264
869.70 0.5662978
869.80 0.5661693
869.90 0.5660408
870.00 0.5659124
870.10 0.565784
870.20 0.5656556
870.30 0.5655273
870.40 0.565399
870.50 0.5652708
870.60 0.5651426
870.70 0.5650145
870.80 0.5648864
870.90 0.5647583
871.00 0.5646303
871.10 0.5645023
871.20 0.5643743
871.30 0.5642465
871.40 0.5641186
871.50 0.5639908
871.60 0.563863
871.70 0.5637353
871.80 0.5636076
871.90 0.56348
872.00 0.5633524
872.10 0.5632249
872.20 0.5630974
872.30 0.5629699
872.40 0.5628425
872.50 0.5627152
872.60 0.5625878
872.70 0.5624605
872.80 0.5623333
872.90 0.5622061
873.00 0.562079
873.10 0.5619519
873.20 0.5618248
873.30 0.5616978
873.40 0.5615708
873.50 0.5614439
873.60 0.561317
873.70 0.5611901
873.80 0.5610633
873.90 0.5609366
874.00 0.5608099
874.10 0.5606832
874.20 0.5605565
874.30 0.56043
874.40 0.5603034
874.50 0.5601769
874.60 0.5600505
874.70 0.559924
874.80 0.5597977
874.90 0.5596714
875.00 0.5595451
875.10 0.5594188
875.20 0.559292
875.30 0.5591643
875.40 0.5590365
875.50 0.5589088
875.60 0.5587812
875.70 0.5586535
875.80 0.558526
875.90 0.5583984
876.00 0.558271
876.10 0.5581435
876.20 0.5580161
876.30 0.5578888
876.40 0.5577615
876.50 0.5576342
876.60 0.557507
876.70 0.5573798
876.80 0.5572527
876.90 0.5571256
877.00 0.5569986
877.10 0.5568716
877.20 0.5567446
877.30 0.5566177
877.40 0.5564908
877.50 0.556364
877.60 0.5562372
877.70 0.5561105
877.80 0.5559838
877.90 0.5558571
878.00 0.5557305
878.10 0.5556039
878.20 0.5554774
878.30 0.5553509
878.40 0.5552245
878.50 0.5550981
878.60 0.5549717
878.70 0.5548454
878.80 0.5547192
878.90 0.5545929
879.00 0.5544667
879.10 0.5543406
879.20 0.5542145
879.30 0.5540885
879.40 0.5539625
879.50 0.5538365
879.60 0.5537093
879.70 0.5535818
879.80 0.5534543
879.90 0.553327
880.00 0.5531996
880.10 0.5530723
880.20 0.552945
880.30 0.5528178
880.40 0.5526907
880.50 0.5525635
880.60 0.5524364
880.70 0.5523094
880.80 0.5521824
880.90 0.5520554
881.00 0.5519285
881.10 0.5518017
881.20 0.5516748
881.30 0.551548
881.40 0.5514213
881.50 0.5512946
881.60 0.551168
881.70 0.5510413
881.80 0.5509148
881.90 0.5507883
882.00 0.5506618
882.10 0.5505353
882.20 0.5504089
882.30 0.5502826
882.40 0.5501563
882.50 0.55003
882.60 0.5499038
882.70 0.5497776
882.80 0.5496515
882.90 0.5495254
883.00 0.5493994
883.10 0.5492733
883.20 0.5491474
883.30 0.5490215
883.40 0.5488956
883.50 0.5487698
883.60 0.548644
883.70 0.5485182
883.80 0.5483925
883.90 0.5482669
884.00 0.5481412
884.10 0.5480157
884.20 0.5478901
884.30 0.5477646
884.40 0.5476392
884.50 0.5475138
884.60 0.5473884
884.70 0.5472631
884.80 0.5471378
884.90 0.5470126
885.00 0.5468874
885.10 0.5467622
885.20 0.5466371
885.30 0.5465121
885.40 0.546387
885.50 0.5462621
885.60 0.5461371
885.70 0.5460122
885.80 0.5458874
885.90 0.5457626
886.00 0.5456378
886.10 0.5455131
886.20 0.5453884
886.30 0.5452637
886.40 0.5451391
886.50 0.5450146
886.60 0.5448901
886.70 0.5447656
886.80 0.5446412
886.90 0.5445168
887.00 0.5443925
887.10 0.5442681
887.20 0.5441439
887.30 0.5440197
887.40 0.5438955
887.50 0.5437714
887.60 0.5436473
887.70 0.5435232
887.80 0.5433992
887.90 0.5432753
888.00 0.5431513
888.10 0.5430274
888.20 0.5429036
888.30 0.5427798
888.40 0.5426554
888.50 0.5425309
888.60 0.5424065
888.70 0.5422821
888.80 0.5421578
888.90 0.5420335
889.00 0.5419092
889.10 0.541785
889.20 0.5416608
889.30 0.5415367
889.40 0.5414126
889.50 0.5412885
889.60 0.5411645
889.70 0.5410405
889.80 0.5409166
889.90 0.5407927
890.00 0.5406689
890.10 0.5405451
890.20 0.5404213
890.30 0.5402976
890.40 0.5401739
890.50 0.5400503
890.60 0.5399267
890.70 0.5398032
890.80 0.5396797
890.90 0.5395562
891.00 0.5394328
891.10 0.5393094
891.20 0.5391861
891.30 0.5390628
891.40 0.5389395
891.50 0.5388163
891.60 0.5386931
891.70 0.53857
891.80 0.5384469
891.90 0.5383239
892.00 0.5382009
892.10 0.5380779
892.20 0.537955
892.30 0.5378321
892.40 0.5377093
892.50 0.5375865
892.60 0.5374637
892.70 0.537341
892.80 0.5372183
892.90 0.5370957
893.00 0.5369731
893.10 0.5368505
893.20 0.536728
893.30 0.5366056
893.40 0.5364832
893.50 0.5363608
893.60 0.5362384
893.70 0.5361161
893.80 0.5359939
893.90 0.5358717
894.00 0.5357495
894.10 0.5356273
894.20 0.5355052
894.30 0.5353832
894.40 0.5352612
894.50 0.5351392
894.60 0.5350173
894.70 0.5348954
894.80 0.5347736
894.90 0.5346517
895.00 0.53453
895.10 0.5344083
895.20 0.5342866
895.30 0.5341649
895.40 0.5340433
895.50 0.5339218
895.60 0.5338003
895.70 0.5336788
895.80 0.5335573
895.90 0.533436
896.00 0.5333146
896.10 0.5331933
896.20 0.533072
896.30 0.5329508
896.40 0.5328296
896.50 0.5327084
896.60 0.5325873
896.70 0.5324663
896.80 0.5323452
896.90 0.5322242
897.00 0.5321033
897.10 0.5319824
897.20 0.5318615
897.30 0.5317399
897.40 0.5316184
897.50 0.531497
897.60 0.5313755
897.70 0.5312541
897.80 0.5311328
897.90 0.5310115
898.00 0.5308902
898.10 0.530769
898.20 0.5306478
898.30 0.5305266
898.40 0.5304055
898.50 0.5302845
898.60 0.5301634
898.70 0.5300425
898.80 0.5299215
898.90 0.5298006
899.00 0.5296798
899.10 0.5295589
899.20 0.5294382
899.30 0.5293174
899.40 0.5291967
899.50 0.5290761
899.60 0.5289554
899.70 0.5288349
899.80 0.5287143
899.90 0.5285938
900.00 0.5284734
900.10 0.528353
900.20 0.5282326
900.30 0.5281122
900.40 0.527992
900.50 0.5278717
900.60 0.5277515
900.70 0.5276313
900.80 0.5275112
900.90 0.5273911
901.00 0.527271
901.10 0.527151
901.20 0.5270311
901.30 0.5269111
901.40 0.5267912
901.50 0.5266714
901.60 0.5265516
901.70 0.5264315
901.80 0.5263103
901.90 0.5261891
902.00 0.526068
902.10 0.5259469
902.20 0.5258258
902.30 0.5257048
902.40 0.5255838
902.50 0.5254629
902.60 0.525342
902.70 0.5252211
902.80 0.5251003
902.90 0.5249796
903.00 0.5248588
903.10 0.5247381
903.20 0.5246175
903.30 0.5244969
903.40 0.5243763
903.50 0.5242558
903.60 0.5241353
903.70 0.5240148
903.80 0.5238944
903.90 0.523774
904.00 0.5236537
904.10 0.5235334
904.20 0.5234132
904.30 0.523293
904.40 0.5231728
904.50 0.5230527
904.60 0.5229326
904.70 0.5228125
904.80 0.5226925
904.90 0.5225726
905.00 0.5224527
905.10 0.5223328
905.20 0.5222129
905.30 0.5220931
905.40 0.5219734
905.50 0.5218536
905.60 0.5217339
905.70 0.5216143
905.80 0.5214947
905.90 0.5213751
906.00 0.5212556
906.10 0.5211361
906.20 0.5210162
906.30 0.5208954
906.40 0.5207746
906.50 0.5206539
906.60 0.5205332
906.70 0.5204125
906.80 0.5202919
906.90 0.5201713
907.00 0.5200508
907.10 0.5199303
907.20 0.5198098
907.30 0.5196894
907.40 0.519569
907.50 0.5194487
907.60 0.5193284
907.70 0.5192082
907.80 0.5190879
907.90 0.5189678
908.00 0.5188476
908.10 0.5187275
908.20 0.5186075
908.30 0.5184875
908.40 0.5183675
908.50 0.5182476
908.60 0.5181277
908.70 0.5180078
908.80 0.517888
908.90 0.5177682
909.00 0.5176485
909.10 0.5175288
909.20 0.5174092
909.30 0.5172896
909.40 0.51717
909.50 0.5170505
909.60 0.516931
909.70 0.5168115
909.80 0.5166921
909.90 0.5165727
910.00 0.5164534
910.10 0.5163341
910.20 0.5162149
910.30 0.5160956
910.40 0.5159765
910.50 0.5158573
910.60 0.5157383
910.70 0.5156192
910.80 0.5155002
910.90 0.5153812
911.00 0.5152623
911.10 0.5151434
911.20 0.5150245
911.30 0.5149057
911.40 0.514787
911.50 0.5146682
911.60 0.5145495
911.70 0.5144309
911.80 0.5143123
911.90 0.5141937
912.00 0.5140752
912.10 0.5139567
912.20 0.5138382
912.30 0.5137198
912.40 0.5136014
912.50 0.5134831
912.60 0.5133648
912.70 0.5132465
912.80 0.5131283
912.90 0.5130101
913.00 0.512892
913.10 0.5127739
913.20 0.5126558
913.30 0.5125378
913.40 0.5124198
913.50 0.5123019
913.60 0.512184
913.70 0.5120661
913.80 0.5119483
913.90 0.5118305
914.00 0.5117128
914.10 0.511595
914.20 0.5114774
914.30 0.5113598
914.40 0.5112422
914.50 0.5111246
914.60 0.5110071
914.70 0.5108896
914.80 0.5107722
914.90 0.5106548
915.00 0.5105375
915.10 0.5104201
915.20 0.5103029
915.30 0.5101857
915.40 0.5100685
915.50 0.5099514
915.60 0.5098344
915.70 0.5097173
915.80 0.5096003
915.90 0.5094834
916.00 0.5093665
916.10 0.5092496
916.20 0.5091328
916.30 0.509016
916.40 0.5088993
916.50 0.5087825
916.60 0.5086659
916.70 0.5085492
916.80 0.5084326
916.90 0.5083161
917.00 0.5081996
917.10 0.5080831
917.20 0.5079666
917.30 0.5078502
917.40 0.5077339
917.50 0.5076175
917.60 0.5075013
917.70 0.507385
917.80 0.5072688
917.90 0.5071526
918.00 0.5070365
918.10 0.5069204
918.20 0.5068043
918.30 0.5066883
918.40 0.5065724
918.50 0.5064564
918.60 0.5063405
918.70 0.5062246
918.80 0.5061088
918.90 0.505993
919.00 0.5058773
919.10 0.5057616
919.20 0.5056459
919.30 0.5055303
919.40 0.5054147
919.50 0.5052991
919.60 0.5051836
919.70 0.5050681
919.80 0.5049527
919.90 0.504836
920.00 0.5047192
920.10 0.5046025
920.20 0.5044858
920.30 0.5043691
920.40 0.5042525
920.50 0.5041359
920.60 0.5040194
920.70 0.5039029
920.80 0.5037864
920.90 0.50367
921.00 0.5035536
921.10 0.5034373
921.20 0.503321
921.30 0.5032047
921.40 0.5030885
921.50 0.5029723
921.60 0.5028561
921.70 0.50274
921.80 0.502624
921.90 0.5025079
922.00 0.5023919
922.10 0.502276
922.20 0.50216
922.30 0.5020442
922.40 0.5019283
922.50 0.5018125
922.60 0.5016968
922.70 0.501581
922.80 0.5014653
922.90 0.5013497
923.00 0.5012341
923.10 0.5011185
923.20 0.501003
923.30 0.5008875
923.40 0.500772
923.50 0.5006566
923.60 0.5005412
923.70 0.5004259
923.80 0.5003106
923.90 0.5001953
924.00 0.5000801
924.10 0.4999649
924.20 0.4998497
924.30 0.4997346
924.40 0.4996195
924.50 0.4995046
924.60 0.4993896
924.70 0.4992747
924.80 0.4991599
924.90 0.4990451
925.00 0.4989303
925.10 0.4988155
925.20 0.4987008
925.30 0.4985862
925.40 0.4984715
925.50 0.498357
925.60 0.4982424
925.70 0.4981279
925.80 0.4980134
925.90 0.497899
926.00 0.4977846
926.10 0.4976702
926.20 0.4975559
926.30 0.4974416
926.40 0.4973273
926.50 0.4972131
926.60 0.497099
926.70 0.4969848
926.80 0.4968707
926.90 0.4967567
927.00 0.4966426
927.10 0.4965286
927.20 0.4964147
927.30 0.4963008
927.40 0.4961869
927.50 0.4960731
927.60 0.4959593
927.70 0.4958455
927.80 0.4957318
927.90 0.4956181
928.00 0.4955045
928.10 0.4953909
928.20 0.4952773
928.30 0.4951637
928.40 0.4950502
928.50 0.4949368
928.60 0.4948234
928.70 0.49471
928.80 0.4945966
928.90 0.4944833
929.00 0.49437
929.10 0.4942555
929.20 0.4941409
929.30 0.4940264
929.40 0.4939119
929.50 0.4937975
929.60 0.4936831
929.70 0.4935687
929.80 0.4934543
929.90 0.49334
930.00 0.4932258
930.10 0.4931116
930.20 0.4929974
930.30 0.4928832
930.40 0.4927691
930.50 0.492655
930.60 0.492541
930.70 0.492427
930.80 0.492313
930.90 0.4921991
931.00 0.4920852
931.10 0.4919714
931.20 0.4918576
931.30 0.4917438
931.40 0.4916301
931.50 0.4915164
931.60 0.4914027
931.70 0.4912891
931.80 0.4911755
931.90 0.491062
932.00 0.4909485
932.10 0.490835
932.20 0.4907216
932.30 0.4906082
932.40 0.4904948
932.50 0.4903815
932.60 0.4902682
932.70 0.4901549
932.80 0.4900417
932.90 0.4899286
933.00 0.4898154
933.10 0.4897023
933.20 0.4895893
933.30 0.4894762
933.40 0.4893632
933.50 0.4892503
933.60 0.4891374
933.70 0.4890246
933.80 0.4889118
933.90 0.4887991
934.00 0.4886864
934.10 0.4885737
934.20 0.4884611
934.30 0.4883486
934.40 0.488236
934.50 0.4881235
934.60 0.4880111
934.70 0.4878986
934.80 0.4877863
934.90 0.4876739
935.00 0.4875616
935.10 0.4874493
935.20 0.4873371
935.30 0.4872249
935.40 0.4871127
935.50 0.4870006
935.60 0.4868885
935.70 0.4867764
935.80 0.4866644
935.90 0.4865524
936.00 0.4864405
936.10 0.4863285
936.20 0.4862167
936.30 0.4861048
936.40 0.485993
936.50 0.4858813
936.60 0.4857695
936.70 0.4856579
936.80 0.4855462
936.90 0.4854346
937.00 0.485323
937.10 0.4852115
937.20 0.4851
937.30 0.4849885
937.40 0.484877
937.50 0.4847657
937.60 0.4846543
937.70 0.484543
937.80 0.4844317
937.90 0.4843204
938.00 0.4842092
938.10 0.484098
938.20 0.4839869
938.30 0.4838758
938.40 0.4837647
938.50 0.4836537
938.60 0.4835427
938.70 0.4834317
938.80 0.4833208
938.90 0.4832099
939.00 0.4830991
939.10 0.4829882
939.20 0.4828775
939.30 0.4827667
939.40 0.482656
939.50 0.4825453
939.60 0.4824347
939.70 0.4823241
939.80 0.4822135
939.90 0.482103
940.00 0.4819925
940.10 0.4818821
940.20 0.4817717
940.30 0.4816613
940.40 0.4815509
940.50 0.4814406
940.60 0.4813303
940.70 0.4812201
940.80 0.4811099
940.90 0.4809997
941.00 0.4808896
941.10 0.4807795
941.20 0.4806695
941.30 0.4805594
941.40 0.4804494
941.50 0.4803395
941.60 0.4802296
941.70 0.4801197
941.80 0.4800099
941.90 0.4799001
942.00 0.4797903
942.10 0.4796805
942.20 0.4795708
942.30 0.4794612
942.40 0.4793516
942.50 0.479242
942.60 0.4791324
942.70 0.4790229
942.80 0.4789134
942.90 0.478804
943.00 0.4786938
943.10 0.4785826
943.20 0.4784714
943.30 0.4783602
943.40 0.4782491
943.50 0.478138
943.60 0.4780269
943.70 0.4779159
943.80 0.4778049
943.90 0.4776939
944.00 0.477583
944.10 0.4774721
944.20 0.4773613
944.30 0.4772504
944.40 0.4771397
944.50 0.4770289
944.60 0.4769182
944.70 0.4768076
944.80 0.4766969
944.90 0.4765863
945.00 0.4764758
945.10 0.4763653
945.20 0.4762548
945.30 0.4761443
945.40 0.4760339
945.50 0.4759235
945.60 0.4758132
945.70 0.4757029
945.80 0.4755926
945.90 0.4754824
946.00 0.4753722
946.10 0.475262
946.20 0.4751519
946.30 0.4750418
946.40 0.4749318
946.50 0.4748217
946.60 0.4747118
946.70 0.4746018
946.80 0.4744919
946.90 0.474382
947.00 0.4742722
947.10 0.4741624
947.20 0.4740526
947.30 0.4739429
947.40 0.4738332
947.50 0.4737235
947.60 0.4736139
947.70 0.4735043
947.80 0.4733948
947.90 0.4732853
948.00 0.4731758
948.10 0.4730663
948.20 0.4729569
948.30 0.4728475
948.40 0.4727382
948.50 0.4726289
948.60 0.4725196
948.70 0.4724104
948.80 0.4723012
948.90 0.472192
949.00 0.4720829
949.10 0.4719738
949.20 0.4718648
949.30 0.4717558
949.40 0.4716468
949.50 0.4715378
949.60 0.4714289
949.70 0.47132
949.80 0.4712112
949.90 0.4711024
950.00 0.4709936
950.10 0.4708849
950.20 0.4707762
950.30 0.4706675
950.40 0.4705589
950.50 0.4704503
950.60 0.4703417
950.70 0.4702332
950.80 0.4701247
950.90 0.4700163
951.00 0.4699078
951.10 0.4697995
951.20 0.4696911
951.30 0.4695828
951.40 0.4694745
951.50 0.4693663
951.60 0.4692581
951.70 0.4691499
951.80 0.4690418
951.90 0.4689337
952.00 0.4688256
952.10 0.4687176
952.20 0.4686096
952.30 0.4685016
952.40 0.4683936
952.50 0.4682852
952.60 0.4681768
952.70 0.4680685
952.80 0.4679601
952.90 0.4678519
953.00 0.4677436
953.10 0.4676354
953.20 0.4675272
953.30 0.4674191
953.40 0.4673109
953.50 0.4672029
953.60 0.4670948
953.70 0.4669868
953.80 0.4668789
953.90 0.4667709
954.00 0.466663
954.10 0.4665552
954.20 0.4664473
954.30 0.4663395
954.40 0.4662318
954.50 0.466124
954.60 0.4660163
954.70 0.4659087
954.80 0.4658011
954.90 0.4656935
955.00 0.4655859
955.10 0.4654784
955.20 0.4653709
955.30 0.4652635
955.40 0.4651561
955.50 0.4650487
955.60 0.4649413
955.70 0.464834
955.80 0.4647268
955.90 0.4646195
956.00 0.4645123
956.10 0.4644052
956.20 0.464298
956.30 0.4641909
956.40 0.4640839
956.50 0.4639768
956.60 0.4638698
956.70 0.4637629
956.80 0.4636559
956.90 0.463549
957.00 0.4634422
957.10 0.4633354
957.20 0.4632286
957.30 0.4631218
957.40 0.4630151
957.50 0.4629084
957.60 0.4628018
957.70 0.4626951
957.80 0.4625886
957.90 0.462482
958.00 0.4623755
958.10 0.462269
958.20 0.4621626
958.30 0.4620562
958.40 0.4619498
958.50 0.4618434
958.60 0.4617371
958.70 0.4616309
958.80 0.4615246
958.90 0.4614184
959.00 0.4613123
959.10 0.4612061
959.20 0.4611
959.30 0.460994
959.40 0.4608879
959.50 0.4607819
959.60 0.460676
959.70 0.46057
959.80 0.4604641
959.90 0.4603583
960.00 0.4602524
960.10 0.4601466
960.20 0.4600409
960.30 0.4599352
960.40 0.4598295
960.50 0.4597238
960.60 0.4596182
960.70 0.4595126
960.80 0.459407
960.90 0.4593015
961.00 0.459196
961.10 0.4590906
961.20 0.4589852
961.30 0.4588798
961.40 0.4587744
961.50 0.4586691
961.60 0.4585638
961.70 0.4584586
961.80 0.4583533
961.90 0.4582482
962.00 0.4581421
962.10 0.4580358
962.20 0.4579296
962.30 0.4578234
962.40 0.4577173
962.50 0.4576112
962.60 0.4575051
962.70 0.4573991
962.80 0.4572931
962.90 0.4571871
963.00 0.4570812
963.10 0.4569753
963.20 0.4568694
963.30 0.4567636
963.40 0.4566578
963.50 0.456552
963.60 0.4564463
963.70 0.4563406
963.80 0.456235
963.90 0.4561293
964.00 0.4560237
964.10 0.4559182
964.20 0.4558127
964.30 0.4557072
964.40 0.4556017
964.50 0.4554963
964.60 0.4553909
964.70 0.4552856
964.80 0.4551802
964.90 0.4550749
965.00 0.4549697
965.10 0.4548645
965.20 0.4547593
965.30 0.4546541
965.40 0.454549
965.50 0.4544439
965.60 0.4543389
965.70 0.4542339
965.80 0.4541289
965.90 0.4540239
966.00 0.453919
966.10 0.4538141
966.20 0.4537093
966.30 0.4536045
966.40 0.4534997
966.50 0.453395
966.60 0.4532902
966.70 0.4531856
966.80 0.4530809
966.90 0.4529763
967.00 0.4528717
967.10 0.4527672
967.20 0.4526627
967.30 0.4525582
967.40 0.4524538
967.50 0.4523493
967.60 0.452245
967.70 0.4521406
967.80 0.4520363
967.90 0.451932
968.00 0.4518278
968.10 0.4517236
968.20 0.4516194
968.30 0.4515153
968.40 0.4514112
968.50 0.4513071
968.60 0.451203
968.70 0.451099
968.80 0.450995
968.90 0.4508911
969.00 0.4507872
969.10 0.4506833
969.20 0.4505795
969.30 0.4504757
969.40 0.4503719
969.50 0.4502681
969.60 0.4501644
969.70 0.4500608
969.80 0.4499571
969.90 0.4498535
970.00 0.4497499
970.10 0.4496464
970.20 0.4495429
970.30 0.4494394
970.40 0.4493359
970.50 0.4492325
970.60 0.4491292
970.70 0.4490258
970.80 0.4489225
970.90 0.4488192
971.00 0.448716
971.10 0.4486128
971.20 0.4485096
971.30 0.4484064
971.40 0.4483033
971.50 0.4482002
971.60 0.4480969
971.70 0.4479934
971.80 0.4478899
971.90 0.4477865
972.00 0.4476831
972.10 0.4475797
972.20 0.4474763
972.30 0.447373
972.40 0.4472698
972.50 0.4471665
972.60 0.4470633
972.70 0.4469602
972.80 0.446857
972.90 0.4467539
973.00 0.4466508
973.10 0.4465478
973.20 0.4464448
973.30 0.4463418
973.40 0.4462389
973.50 0.446136
973.60 0.4460331
973.70 0.4459302
973.80 0.4458274
973.90 0.4457247
974.00 0.4456219
974.10 0.4455192
974.20 0.4454165
974.30 0.4453139
974.40 0.4452113
974.50 0.4451087
974.60 0.4450061
974.70 0.4449036
974.80 0.4448011
974.90 0.4446987
975.00 0.4445963
975.10 0.4444939
975.20 0.4443915
975.30 0.4442892
975.40 0.4441869
975.50 0.4440847
975.60 0.4439824
975.70 0.4438803
975.80 0.4437781
975.90 0.443676
976.00 0.4435739
976.10 0.4434718
976.20 0.4433698
976.30 0.4432678
976.40 0.4431658
976.50 0.4430639
976.60 0.442962
976.70 0.4428602
976.80 0.4427583
976.90 0.4426565
977.00 0.4425548
977.10 0.442453
977.20 0.4423513
977.30 0.4422496
977.40 0.442148
977.50 0.4420464
977.60 0.4419448
977.70 0.4418433
977.80 0.4417418
977.90 0.4416403
978.00 0.4415389
978.10 0.4414375
978.20 0.4413361
978.30 0.4412347
978.40 0.4411334
978.50 0.4410321
978.60 0.4409309
978.70 0.4408297
978.80 0.4407285
978.90 0.4406273
979.00 0.4405262
979.10 0.4404251
979.20 0.4403241
979.30 0.440223
979.40 0.440122
979.50 0.4400211
979.60 0.4399201
979.70 0.4398192
979.80 0.4397184
979.90 0.4396175
980.00 0.4395167
980.10 0.439416
980.20 0.4393152
980.30 0.4392145
980.40 0.4391139
980.50 0.4390132
980.60 0.4389126
980.70 0.438812
980.80 0.4387115
980.90 0.438611
981.00 0.4385105
981.10 0.43841
981.20 0.4383096
981.30 0.4382084
981.40 0.4381065
981.50 0.4380045
981.60 0.4379026
981.70 0.4378007
981.80 0.4376989
981.90 0.4375971
982.00 0.4374953
982.10 0.4373936
982.20 0.4372918
982.30 0.4371902
982.40 0.4370885
982.50 0.4369869
982.60 0.4368853
982.70 0.4367838
982.80 0.4366822
982.90 0.4365808
983.00 0.4364793
983.10 0.4363779
983.20 0.4362765
983.30 0.4361751
983.40 0.4360738
983.50 0.4359725
983.60 0.4358713
983.70 0.43577
983.80 0.4356688
983.90 0.4355677
984.00 0.4354665
984.10 0.4353654
984.20 0.4352644
984.30 0.4351633
984.40 0.4350623
984.50 0.4349613
984.60 0.4348604
984.70 0.4347595
984.80 0.4346586
984.90 0.4345578
985.00 0.434457
985.10 0.4343562
985.20 0.4342554
985.30 0.4341547
985.40 0.434054
985.50 0.4339534
985.60 0.4338528
985.70 0.4337522
985.80 0.4336516
985.90 0.4335511
986.00 0.4334506
986.10 0.4333501
986.20 0.4332497
986.30 0.4331493
986.40 0.4330489
986.50 0.4329486
986.60 0.4328483
986.70 0.432748
986.80 0.4326478
986.90 0.4325476
987.00 0.4324474
987.10 0.4323473
987.20 0.4322472
987.30 0.4321471
987.40 0.432047
987.50 0.431947
987.60 0.431847
987.70 0.4317471
987.80 0.4316472
987.90 0.4315473
988.00 0.4314474
988.10 0.4313476
988.20 0.4312478
988.30 0.431148
988.40 0.4310483
988.50 0.4309486
988.60 0.4308489
988.70 0.4307493
988.80 0.4306497
988.90 0.4305501
989.00 0.4304506
989.10 0.430351
989.20 0.4302516
989.30 0.4301521
989.40 0.4300527
989.50 0.4299533
989.60 0.429854
989.70 0.4297546
989.80 0.4296553
989.90 0.4295561
990.00 0.4294569
990.10 0.4293577
990.20 0.4292585
990.30 0.4291594
990.40 0.4290602
990.50 0.4289612
990.60 0.4288621
990.70 0.4287631
990.80 0.4286641
990.90 0.4285652
991.00 0.4284663
991.10 0.4283674
991.20 0.4282687
991.30 0.42817
991.40 0.4280713
991.50 0.4279727
991.60 0.4278741
991.70 0.4277755
991.80 0.427677
991.90 0.4275784
992.00 0.42748
992.10 0.4273815
992.20 0.4272831
992.30 0.4271847
992.40 0.4270863
992.50 0.426988
992.60 0.4268897
992.70 0.4267914
992.80 0.4266932
992.90 0.426595
993.00 0.4264968
993.10 0.4263987
993.20 0.4263006
993.30 0.4262025
993.40 0.4261044
993.50 0.4260064
993.60 0.4259084
993.70 0.4258105
993.80 0.4257125
993.90 0.4256146
994.00 0.4255168
994.10 0.4254189
994.20 0.4253211
994.30 0.4252234
994.40 0.4251256
994.50 0.4250279
994.60 0.4249302
994.70 0.4248326
994.80 0.4247349
994.90 0.4246374
995.00 0.4245398
995.10 0.4244423
995.20 0.4243448
995.30 0.4242473
995.40 0.4241499
995.50 0.4240525
995.60 0.4239551
995.70 0.4238577
995.80 0.4237604
995.90 0.4236631
996.00 0.4235659
996.10 0.4234687
996.20 0.4233715
996.30 0.4232743
996.40 0.4231772
996.50 0.4230801
996.60 0.422983
996.70 0.422886
996.80 0.422789
996.90 0.422692
997.00 0.4225951
997.10 0.4224981
997.20 0.4224013
997.30 0.4223044
997.40 0.4222076
997.50 0.4221108
997.60 0.422014
997.70 0.4219173
997.80 0.4218206
997.90 0.4217239
998.00 0.4216273
998.10 0.4215306
998.20 0.4214341
998.30 0.4213375
998.40 0.421241
998.50 0.4211445
998.60 0.421048
998.70 0.4209516
998.80 0.4208552
998.90 0.4207588
999.00 0.4206625
999.10 0.4205662
999.20 0.4204699
999.30 0.4203736
999.40 0.4202774
999.50 0.4201812
999.60 0.4200851
999.70 0.4199889
999.80 0.4198928
999.90 0.4197968
1000.00 0.4197007
1000.10 0.4196047
1000.20 0.4195087
1000.30 0.4194128
1000.40 0.4193169
1000.50 0.419221
1000.60 0.4191251
1000.70 0.4190293
1000.80 0.4189335
1000.90 0.4188377
1001.00 0.4187417
1001.10 0.4186451
1001.20 0.4185484
1001.30 0.4184518
1001.40 0.4183552
1001.50 0.4182586
1001.60 0.4181621
1001.70 0.4180656
1001.80 0.4179692
1001.90 0.4178727
1002.00 0.4177763
1002.10 0.4176799
1002.20 0.4175836
1002.30 0.4174873
1002.40 0.417391
1002.50 0.4172947
1002.60 0.4171985
1002.70 0.4171023
1002.80 0.4170061
1002.90 0.41691
1003.00 0.4168139
1003.10 0.4167178
1003.20 0.4166218
1003.30 0.4165258
1003.40 0.4164298
1003.50 0.4163338
1003.60 0.4162379
1003.70 0.416142
1003.80 0.4160461
1003.90 0.4159503
1004.00 0.4158545
1004.10 0.4157587
1004.20 0.415663
1004.30 0.4155673
1004.40 0.4154716
1004.50 0.4153759
1004.60 0.4152803
1004.70 0.4151847
1004.80 0.4150891
1004.90 0.4149936
1005.00 0.4148981
1005.10 0.4148026
1005.20 0.4147072
1005.30 0.4146117
1005.40 0.4145164
1005.50 0.414421
1005.60 0.4143257
1005.70 0.4142304
1005.80 0.4141351
1005.90 0.4140399
1006.00 0.4139444
1006.10 0.4138482
1006.20 0.4137519
1006.30 0.4136558
1006.40 0.4135596
1006.50 0.4134634
1006.60 0.4133673
1006.70 0.4132713
1006.80 0.4131752
1006.90 0.4130792
1007.00 0.4129832
1007.10 0.4128873
1007.20 0.4127913
1007.30 0.4126954
1007.40 0.4125996
1007.50 0.4125037
1007.60 0.4124079
1007.70 0.4123121
1007.80 0.4122164
1007.90 0.4121207
1008.00 0.412025
1008.10 0.4119293
1008.20 0.4118337
1008.30 0.4117381
1008.40 0.4116425
1008.50 0.411547
1008.60 0.4114515
1008.70 0.411356
1008.80 0.4112606
1008.90 0.4111651
1009.00 0.4110698
1009.10 0.4109744
1009.20 0.4108791
1009.30 0.4107838
1009.40 0.4106885
1009.50 0.4105933
1009.60 0.410498
1009.70 0.4104029
1009.80 0.4103077
1009.90 0.4102126
1010.00 0.4101175
1010.10 0.4100224
1010.20 0.4099274
1010.30 0.4098324
1010.40 0.4097374
1010.50 0.4096425
1010.60 0.4095476
1010.70 0.4094527
1010.80 0.4093578
1010.90 0.409263
1011.00 0.4091684
1011.10 0.4090748
1011.20 0.4089813
1011.30 0.4088878
1011.40 0.4087943
1011.50 0.4087008
1011.60 0.4086074
1011.70 0.408514
1011.80 0.4084206
1011.90 0.4083273
1012.00 0.4082339
1012.10 0.4081407
1012.20 0.4080474
1012.30 0.4079542
1012.40 0.407861
1012.50 0.4077678
1012.60 0.4076747
1012.70 0.4075816
1012.80 0.4074885
1012.90 0.4073954
1013.00 0.4073024
1013.10 0.4072094
1013.20 0.4071164
1013.30 0.4070235
1013.40 0.4069306
1013.50 0.4068377
1013.60 0.4067448
1013.70 0.406652
1013.80 0.4065592
1013.90 0.4064665
1014.00 0.4063737
1014.10 0.406281
1014.20 0.4061883
1014.30 0.4060957
1014.40 0.4060031
1014.50 0.4059105
1014.60 0.4058179
1014.70 0.4057254
1014.80 0.4056329
1014.90 0.4055404
1015.00 0.4054479
1015.10 0.4053555
1015.20 0.4052631
1015.30 0.4051707
1015.40 0.4050784
1015.50 0.4049861
1015.60 0.4048938
1015.70 0.4048016
1015.80 0.4047093
1015.90 0.4046171
1016.00 0.404525
1016.10 0.4044322
1016.20 0.404339
1016.30 0.4042459
1016.40 0.4041528
1016.50 0.4040597
1016.60 0.4039667
1016.70 0.4038737
1016.80 0.4037807
1016.90 0.4036878
1017.00 0.4035948
1017.10 0.403502
1017.20 0.4034091
1017.30 0.4033163
1017.40 0.4032234
1017.50 0.4031307
1017.60 0.4030379
1017.70 0.4029452
1017.80 0.4028525
1017.90 0.4027598
1018.00 0.4026672
1018.10 0.4025746
1018.20 0.402482
1018.30 0.4023895
1018.40 0.4022969
1018.50 0.4022045
1018.60 0.402112
1018.70 0.4020196
1018.80 0.4019271
1018.90 0.4018348
1019.00 0.4017424
1019.10 0.4016501
1019.20 0.4015578
1019.30 0.4014655
1019.40 0.4013733
1019.50 0.4012811
1019.60 0.4011889
1019.70 0.4010968
1019.80 0.4010046
1019.90 0.4009125
1020.00 0.4008205
1020.10 0.4007284
1020.20 0.4006364
1020.30 0.4005445
1020.40 0.4004525
1020.50 0.4003606
1020.60 0.4002687
1020.70 0.4001768
1020.80 0.400085
1020.90 0.3999932
1021.00 0.3999014
1021.10 0.3998096
1021.20 0.399717
1021.30 0.3996244
1021.40 0.3995318
1021.50 0.3994393
1021.60 0.3993468
1021.70 0.3992543
1021.80 0.3991619
1021.90 0.3990695
1022.00 0.3989771
1022.10 0.3988847
1022.20 0.3987924
1022.30 0.3987001
1022.40 0.3986078
1022.50 0.3985156
1022.60 0.3984234
1022.70 0.3983312
1022.80 0.398239
1022.90 0.3981469
1023.00 0.3980548
1023.10 0.3979627
1023.20 0.3978707
1023.30 0.3977787
1023.40 0.3976867
1023.50 0.3975947
1023.60 0.3975028
1023.70 0.3974109
1023.80 0.397319
1023.90 0.3972272
1024.00 0.3971353
1024.10 0.3970436
1024.20 0.3969518
1024.30 0.3968601
1024.40 0.3967684
1024.50 0.3966767
1024.60 0.396585
1024.70 0.3964934
1024.80 0.3964018
1024.90 0.3963103
1025.00 0.3962187
1025.10 0.3961272
1025.20 0.3960357
1025.30 0.3959443
1025.40 0.3958529
1025.50 0.3957615
1025.60 0.3956701
1025.70 0.3955788
1025.80 0.3954875
1025.90 0.3953962
1026.00 0.3953049
1026.10 0.3952137
1026.20 0.3951225
1026.30 0.3950313
1026.40 0.3949402
1026.50 0.3948491
1026.60 0.394758
1026.70 0.3946669
1026.80 0.3945759
1026.90 0.3944849
1027.00 0.3943939
1027.10 0.394303
1027.20 0.394212
1027.30 0.3941211
1027.40 0.3940303
1027.50 0.3939394
1027.60 0.3938486
1027.70 0.3937579
1027.80 0.3936671
1027.90 0.3935764
1028.00 0.3934857
1028.10 0.393395
1028.20 0.3933044
1028.30 0.3932138
1028.40 0.3931232
1028.50 0.3930326
1028.60 0.3929421
1028.70 0.3928516
1028.80 0.3927611
1028.90 0.3926707
1029.00 0.3925802
1029.10 0.3924898
1029.20 0.3923995
1029.30 0.3923091
1029.40 0.3922188
1029.50 0.3921286
1029.60 0.3920383
1029.70 0.3919481
1029.80 0.3918579
1029.90 0.3917677
1030.00 0.3916776
1030.10 0.3915874
1030.20 0.3914974
1030.30 0.3914073
1030.40 0.3913173
1030.50 0.3912273
1030.60 0.3911373
1030.70 0.3910473
1030.80 0.3909574
1030.90 0.3908675
1031.00 0.3907777
1031.10 0.3906878
1031.20 0.390598
1031.30 0.3905082
1031.40 0.3904186
1031.50 0.390329
1031.60 0.3902394
1031.70 0.3901499
1031.80 0.3900604
1031.90 0.3899709
1032.00 0.3898815
1032.10 0.3897921
1032.20 0.3897027
1032.30 0.3896133
1032.40 0.3895239
1032.50 0.3894346
1032.60 0.3893453
1032.70 0.3892561
1032.80 0.3891669
1032.90 0.3890776
1033.00 0.3889885
1033.10 0.3888993
1033.20 0.3888102
1033.30 0.3887211
1033.40 0.388632
1033.50 0.388543
1033.60 0.388454
1033.70 0.388365
1033.80 0.388276
1033.90 0.3881871
1034.00 0.3880982
1034.10 0.3880093
1034.20 0.3879205
1034.30 0.3878316
1034.40 0.3877428
1034.50 0.3876541
1034.60 0.3875653
1034.70 0.3874766
1034.80 0.3873879
1034.90 0.3872992
1035.00 0.3872106
1035.10 0.387122
1035.20 0.3870334
1035.30 0.3869449
1035.40 0.3868563
1035.50 0.3867678
1035.60 0.3866794
1035.70 0.3865909
1035.80 0.3865025
1035.90 0.3864141
1036.00 0.3863257
1036.10 0.3862374
1036.20 0.3861491
1036.30 0.3860608
1036.40 0.3859725
1036.50 0.3858843
1036.60 0.3857961
1036.70 0.3857079
1036.80 0.3856198
1036.90 0.3855316
1037.00 0.3854435
1037.10 0.3853555
1037.20 0.3852674
1037.30 0.3851794
1037.40 0.3850914
1037.50 0.3850034
1037.60 0.3849155
1037.70 0.3848276
1037.80 0.3847397
1037.90 0.3846519
1038.00 0.384564
1038.10 0.3844762
1038.20 0.3843884
1038.30 0.3843007
1038.40 0.384213
1038.50 0.3841253
1038.60 0.3840376
1038.70 0.3839499
1038.80 0.3838623
1038.90 0.3837747
1039.00 0.3836872
1039.10 0.3835996
1039.20 0.3835121
1039.30 0.3834246
1039.40 0.3833372
1039.50 0.3832497
1039.60 0.3831623
1039.70 0.3830749
1039.80 0.3829876
1039.90 0.3829003
1040.00 0.382813
1040.10 0.3827257
1040.20 0.3826384
1040.30 0.3825512
1040.40 0.382464
1040.50 0.3823769
1040.60 0.3822897
1040.70 0.3822026
1040.80 0.3821155
1040.90 0.3820285
1041.00 0.3819414
1041.10 0.3818544
1041.20 0.3817674
1041.30 0.3816805
1041.40 0.3815935
1041.50 0.3815066
1041.60 0.3814198
1041.70 0.3813322
1041.80 0.3812446
1041.90 0.3811569
1042.00 0.3810693
1042.10 0.3809818
1042.20 0.3808942
1042.30 0.3808067
1042.40 0.3807192
1042.50 0.3806318
1042.60 0.3805443
1042.70 0.3804569
1042.80 0.3803695
1042.90 0.3802822
1043.00 0.3801948
1043.10 0.3801075
1043.20 0.3800202
1043.30 0.379933
1043.40 0.3798458
1043.50 0.3797586
1043.60 0.3796714
1043.70 0.3795842
1043.80 0.3794971
1043.90 0.37941
1044.00 0.3793229
1044.10 0.3792359
1044.20 0.3791489
1044.30 0.3790619
1044.40 0.3789749
1044.50 0.378888
1044.60 0.3788011
1044.70 0.3787142
1044.80 0.3786273
1044.90 0.3785405
1045.00 0.3784537
1045.10 0.3783669
1045.20 0.3782802
1045.30 0.3781935
1045.40 0.3781068
1045.50 0.3780201
1045.60 0.3779334
1045.70 0.3778468
1045.80 0.3777602
1045.90 0.3776736
1046.00 0.3775871
1046.10 0.3775006
1046.20 0.3774141
1046.30 0.3773276
1046.40 0.3772412
1046.50 0.3771548
1046.60 0.3770684
1046.70 0.376982
1046.80 0.3768957
1046.90 0.3768094
1047.00 0.3767231
1047.10 0.3766369
1047.20 0.3765506
1047.30 0.3764644
1047.40 0.3763782
1047.50 0.3762921
1047.60 0.376206
1047.70 0.3761199
1047.80 0.3760338
1047.90 0.3759478
1048.00 0.3758617
1048.10 0.3757757
1048.20 0.3756898
1048.30 0.3756038
1048.40 0.3755179
1048.50 0.375432
1048.60 0.3753462
1048.70 0.3752603
1048.80 0.3751745
1048.90 0.3750887
1049.00 0.375003
1049.10 0.3749172
1049.20 0.3748315
1049.30 0.3747458
1049.40 0.3746602
1049.50 0.3745745
1049.60 0.3744889
1049.70 0.3744033
1049.80 0.3743178
1049.90 0.3742323
1050.00 0.3741468
1050.10 0.3740613
1050.20 0.3739758
1050.30 0.3738904
1050.40 0.373805
1050.50 0.3737196
1050.60 0.3736343
1050.70 0.373549
1050.80 0.3734637
1050.90 0.3733784
1051.00 0.3732931
1051.10 0.3732079
1051.20 0.3731227
1051.30 0.3730376
1051.40 0.3729524
1051.50 0.3728673
1051.60 0.3727822
1051.70 0.3726971
1051.80 0.3726121
1051.90 0.3725271
1052.00 0.3724421
1052.10 0.3723566
1052.20 0.3722709
1052.30 0.3721852
1052.40 0.3720995
1052.50 0.3720138
1052.60 0.3719282
1052.70 0.3718426
1052.80 0.371757
1052.90 0.3716715
1053.00 0.3715859
1053.10 0.3715004
1053.20 0.371415
1053.30 0.3713295
1053.40 0.3712441
1053.50 0.3711587
1053.60 0.3710733
1053.70 0.370988
1053.80 0.3709027
1053.90 0.3708174
1054.00 0.3707321
1054.10 0.3706469
1054.20 0.3705616
1054.30 0.3704765
1054.40 0.3703913
1054.50 0.3703062
1054.60 0.370221
1054.70 0.3701359
1054.80 0.3700509
1054.90 0.3699658
1055.00 0.3698808
1055.10 0.3697959
1055.20 0.3697109
1055.30 0.369626
1055.40 0.369541
1055.50 0.3694562
1055.60 0.3693713
1055.70 0.3692865
1055.80 0.3692017
1055.90 0.3691169
1056.00 0.3690321
1056.10 0.3689474
1056.20 0.3688627
1056.30 0.368778
1056.40 0.3686934
1056.50 0.3686087
1056.60 0.3685241
1056.70 0.3684395
1056.80 0.368355
1056.90 0.3682705
1057.00 0.368186
1057.10 0.3681015
1057.20 0.368017
1057.30 0.3679326
1057.40 0.3678482
1057.50 0.3677638
1057.60 0.3676795
1057.70 0.3675952
1057.80 0.3675109
1057.90 0.3674266
1058.00 0.3673423
1058.10 0.3672581
1058.20 0.3671739
1058.30 0.3670897
1058.40 0.3670056
1058.50 0.3669215
1058.60 0.3668374
1058.70 0.3667533
1058.80 0.3666693
1058.90 0.3665852
1059.00 0.3665012
1059.10 0.3664173
1059.20 0.3663333
1059.30 0.3662494
1059.40 0.3661655
1059.50 0.3660816
1059.60 0.3659978
1059.70 0.365914
1059.80 0.3658302
1059.90 0.3657464
1060.00 0.3656627
1060.10 0.365579
1060.20 0.3654953
1060.30 0.3654116
1060.40 0.3653279
1060.50 0.3652443
1060.60 0.3651607
1060.70 0.3650772
1060.80 0.3649936
1060.90 0.3649101
1061.00 0.3648266
1061.10 0.3647431
1061.20 0.3646597
1061.30 0.3645763
1061.40 0.3644929
1061.50 0.3644095
1061.60 0.3643262
1061.70 0.3642428
1061.80 0.3641595
1061.90 0.3640763
1062.00 0.363993
1062.10 0.3639098
1062.20 0.3638266
1062.30 0.3637435
1062.40 0.3636603
1062.50 0.3635772
1062.60 0.3634942
1062.70 0.3634112
1062.80 0.3633283
1062.90 0.3632455
1063.00 0.3631626
1063.10 0.3630798
1063.20 0.362997
1063.30 0.3629142
1063.40 0.3628314
1063.50 0.3627487
1063.60 0.362666
1063.70 0.3625833
1063.80 0.3625007
1063.90 0.3624181
1064.00 0.3623354
1064.10 0.3622529
1064.20 0.3621703
1064.30 0.3620878
1064.40 0.3620053
1064.50 0.3619228
1064.60 0.3618403
1064.70 0.3617579
1064.80 0.3616755
1064.90 0.3615931
1065.00 0.3615108
1065.10 0.3614284
1065.20 0.3613461
1065.30 0.3612638
1065.40 0.3611816
1065.50 0.3610993
1065.60 0.3610171
1065.70 0.3609349
1065.80 0.3608528
1065.90 0.3607706
1066.00 0.3606885
1066.10 0.3606064
1066.20 0.3605244
1066.30 0.3604423
1066.40 0.3603603
1066.50 0.3602783
1066.60 0.3601964
1066.70 0.3601144
1066.80 0.3600325
1066.90 0.3599506
1067.00 0.3598687
1067.10 0.3597869
1067.20 0.3597051
1067.30 0.3596233
1067.40 0.3595415
1067.50 0.3594598
1067.60 0.359378
1067.70 0.3592963
1067.80 0.3592147
1067.90 0.3591327
1068.00 0.3590502
1068.10 0.3589677
1068.20 0.3588852
1068.30 0.3588027
1068.40 0.3587203
1068.50 0.3586379
1068.60 0.3585555
1068.70 0.3584732
1068.80 0.3583909
1068.90 0.3583085
1069.00 0.3582263
1069.10 0.358144
1069.20 0.3580618
1069.30 0.3579796
1069.40 0.3578974
1069.50 0.3578152
1069.60 0.3577331
1069.70 0.357651
1069.80 0.3575689
1069.90 0.3574868
1070.00 0.3574048
1070.10 0.3573228
1070.20 0.3572408
1070.30 0.3571588
1070.40 0.3570769
1070.50 0.356995
1070.60 0.3569131
1070.70 0.3568312
1070.80 0.3567494
1070.90 0.3566676
1071.00 0.3565858
1071.10 0.356504
1071.20 0.3564223
1071.30 0.3563405
1071.40 0.3562588
1071.50 0.3561772
1071.60 0.3560955
1071.70 0.3560139
1071.80 0.3559323
1071.90 0.3558507
1072.00 0.3557692
1072.10 0.3556877
1072.20 0.3556061
1072.30 0.3555247
1072.40 0.3554432
1072.50 0.3553618
1072.60 0.3552804
1072.70 0.355199
1072.80 0.3551176
1072.90 0.3550363
1073.00 0.354955
1073.10 0.3548737
1073.20 0.3547925
1073.30 0.3547114
1073.40 0.3546304
1073.50 0.3545493
1073.60 0.3544683
1073.70 0.3543873
1073.80 0.3543064
1073.90 0.3542254
1074.00 0.3541445
1074.10 0.3540636
1074.20 0.3539827
1074.30 0.3539019
1074.40 0.3538211
1074.50 0.3537403
1074.60 0.3536595
1074.70 0.3535788
1074.80 0.353498
1074.90 0.3534173
1075.00 0.3533367
1075.10 0.353256
1075.20 0.3531754
1075.30 0.3530948
1075.40 0.3530142
1075.50 0.3529336
1075.60 0.3528531
1075.70 0.3527726
1075.80 0.3526921
1075.90 0.3526117
1076.00 0.3525312
1076.10 0.3524508
1076.20 0.3523704
1076.30 0.35229
1076.40 0.3522097
1076.50 0.3521294
1076.60 0.3520491
1076.70 0.3519688
1076.80 0.3518886
1076.90 0.3518083
1077.00 0.3517282
1077.10 0.351648
1077.20 0.3515678
1077.30 0.3514877
1077.40 0.3514076
1077.50 0.3513275
1077.60 0.3512474
1077.70 0.3511674
1077.80 0.3510874
1077.90 0.3510074
1078.00 0.3509275
1078.10 0.3508475
1078.20 0.3507676
1078.30 0.3506877
1078.40 0.3506078
1078.50 0.350528
1078.60 0.3504482
1078.70 0.3503684
1078.80 0.3502886
1078.90 0.3502089
1079.00 0.3501291
1079.10 0.3500494
1079.20 0.3499697
1079.30 0.3498901
1079.40 0.3498105
1079.50 0.3497308
1079.60 0.3496513
1079.70 0.3495717
1079.80 0.3494922
1079.90 0.3494126
1080.00 0.3493331
1080.10 0.3492537
1080.20 0.3491742
1080.30 0.3490948
1080.40 0.3490154
1080.50 0.348936
1080.60 0.3488567
1080.70 0.3487774
1080.80 0.3486981
1080.90 0.3486188
1081.00 0.3485395
1081.10 0.3484603
1081.20 0.3483811
1081.30 0.3483019
1081.40 0.3482227
1081.50 0.3481436
1081.60 0.3480645
1081.70 0.3479854
1081.80 0.3479063
1081.90 0.3478272
1082.00 0.3477482
1082.10 0.3476692
1082.20 0.3475902
1082.30 0.3475113
1082.40 0.3474324
1082.50 0.3473534
1082.60 0.3472746
1082.70 0.3471957
1082.80 0.3471169
1082.90 0.347038
1083.00 0.3469592
1083.10 0.3468805
1083.20 0.3468017
1083.30 0.346723
1083.40 0.3466443
1083.50 0.3465656
1083.60 0.346487
1083.70 0.3464083
1083.80 0.3463297
1083.90 0.3462512
1084.00 0.3461727
1084.10 0.3460943
1084.20 0.346016
1084.30 0.3459376
1084.40 0.3458593
1084.50 0.345781
1084.60 0.3457027
1084.70 0.3456245
1084.80 0.3455462
1084.90 0.345468
1085.00 0.3453898
1085.10 0.3453117
1085.20 0.3452335
1085.30 0.3451554
1085.40 0.3450773
1085.50 0.3449993
1085.60 0.3449212
1085.70 0.3448432
1085.80 0.3447652
1085.90 0.3446872
1086.00 0.3446093
1086.10 0.3445313
1086.20 0.3444534
1086.30 0.3443755
1086.40 0.3442977
1086.50 0.3442198
1086.60 0.344142
1086.70 0.3440642
1086.80 0.3439864
1086.90 0.3439087
1087.00 0.343831
1087.10 0.3437533
1087.20 0.3436756
1087.30 0.3435979
1087.40 0.3435203
1087.50 0.3434427
1087.60 0.3433651
1087.70 0.3432875
1087.80 0.34321
1087.90 0.3431324
1088.00 0.3430549
1088.10 0.3429775
1088.20 0.3429
1088.30 0.3428226
1088.40 0.3427452
1088.50 0.3426678
1088.60 0.3425904
1088.70 0.3425131
1088.80 0.3424357
1088.90 0.3423585
1089.00 0.3422812
1089.10 0.3422039
1089.20 0.3421267
1089.30 0.3420495
1089.40 0.3419717
1089.50 0.3418937
1089.60 0.3418157
1089.70 0.3417378
1089.80 0.3416598
1089.90 0.3415819
1090.00 0.341504
1090.10 0.3414261
1090.20 0.3413483
1090.30 0.3412705
1090.40 0.3411927
1090.50 0.3411149
1090.60 0.3410371
1090.70 0.3409594
1090.80 0.3408817
1090.90 0.340804
1091.00 0.3407263
1091.10 0.3406487
1091.20 0.340571
1091.30 0.3404934
1091.40 0.3404159
1091.50 0.3403383
1091.60 0.3402608
1091.70 0.3401833
1091.80 0.3401058
1091.90 0.3400283
1092.00 0.3399509
1092.10 0.3398735
1092.20 0.3397961
1092.30 0.3397187
1092.40 0.3396414
1092.50 0.339564
1092.60 0.3394867
1092.70 0.3394094
1092.80 0.3393322
1092.90 0.3392549
1093.00 0.3391777
1093.10 0.3391005
1093.20 0.3390234
1093.30 0.3389462
1093.40 0.3388691
1093.50 0.338792
1093.60 0.3387149
1093.70 0.3386379
1093.80 0.3385608
1093.90 0.3384838
1094.00 0.3384068
1094.10 0.3383299
1094.20 0.3382529
1094.30 0.338176
1094.40 0.3380991
1094.50 0.3380222
1094.60 0.3379454
1094.70 0.3378685
1094.80 0.3377916
1094.90 0.3377145
1095.00 0.3376375
1095.10 0.3375605
1095.20 0.3374835
1095.30 0.3374066
1095.40 0.3373296
1095.50 0.3372527
1095.60 0.3371758
1095.70 0.337099
1095.80 0.3370221
1095.90 0.3369453
1096.00 0.3368685
1096.10 0.3367917
1096.20 0.3367149
1096.30 0.3366382
1096.40 0.3365615
1096.50 0.3364848
1096.60 0.3364081
1096.70 0.3363315
1096.80 0.3362549
1096.90 0.3361783
1097.00 0.3361017
1097.10 0.3360251
1097.20 0.3359486
1097.30 0.3358721
1097.40 0.3357956
1097.50 0.3357191
1097.60 0.3356427
1097.70 0.3355663
1097.80 0.3354899
1097.90 0.3354135
1098.00 0.3353371
1098.10 0.3352608
1098.20 0.3351845
1098.30 0.3351082
1098.40 0.3350319
1098.50 0.3349557
1098.60 0.3348795
1098.70 0.3348033
1098.80 0.3347271
1098.90 0.3346509
1099.00 0.3345748
1099.10 0.3344987
1099.20 0.3344226
1099.30 0.3343465
1099.40 0.3342705
1099.50 0.3341944
1099.60 0.3341184
1099.70 0.3340425
1099.80 0.3339665
1099.90 0.3338906
1100.00 0.3338147
1100.10 0.3337388
1100.20 0.3336629
1100.30 0.3335871
1100.40 0.3335112
1100.50 0.3334354
1100.60 0.3333597
1100.70 0.3332839
1100.80 0.3332082
1100.90 0.3331324
1101.00 0.3330568
1101.10 0.3329811
1101.20 0.3329054
1101.30 0.3328298
1101.40 0.3327542
1101.50 0.3326786
1101.60 0.3326031
1101.70 0.3325275
1101.80 0.332452
1101.90 0.3323765
1102.00 0.332301
1102.10 0.3322256
1102.20 0.3321502
1102.30 0.3320748
1102.40 0.3319994
1102.50 0.331924
1102.60 0.3318487
1102.70 0.3317733
1102.80 0.331698
1102.90 0.3316228
1103.00 0.3315475
1103.10 0.3314723
1103.20 0.3313971
1103.30 0.3313219
1103.40 0.3312467
1103.50 0.3311716
1103.60 0.3310965
1103.70 0.3310214
1103.80 0.3309463
1103.90 0.3308712
1104.00 0.3307962
1104.10 0.3307212
1104.20 0.3306462
1104.30 0.3305712
1104.40 0.3304963
1104.50 0.3304213
1104.60 0.3303464
1104.70 0.3302715
1104.80 0.3301967
1104.90 0.3301218
1105.00 0.330047
1105.10 0.3299722
1105.20 0.3298974
1105.30 0.3298227
1105.40 0.329748
1105.50 0.3296733
1105.60 0.3295986
1105.70 0.3295239
1105.80 0.3294494
1105.90 0.3293749
1106.00 0.3293005
1106.10 0.329226
1106.20 0.3291516
1106.30 0.3290772
1106.40 0.3290029
1106.50 0.3289285
1106.60 0.3288542
1106.70 0.3287799
1106.80 0.3287056
1106.90 0.3286314
1107.00 0.3285571
1107.10 0.3284829
1107.20 0.3284087
1107.30 0.3283345
1107.40 0.3282604
1107.50 0.3281862
1107.60 0.3281121
1107.70 0.328038
1107.80 0.327964
1107.90 0.3278899
1108.00 0.3278159
1108.10 0.3277419
1108.20 0.3276679
1108.30 0.327594
1108.40 0.32752
1108.50 0.3274461
1108.60 0.3273722
1108.70 0.3272983
1108.80 0.3272245
1108.90 0.3271506
1109.00 0.3270768
1109.10 0.327003
1109.20 0.3269293
1109.30 0.3268555
1109.40 0.3267818
1109.50 0.3267081
1109.60 0.3266344
1109.70 0.3265608
1109.80 0.3264871
1109.90 0.3264135
1110.00 0.3263399
1110.10 0.3262663
1110.20 0.3261928
1110.30 0.3261192
1110.40 0.3260457
1110.50 0.3259722
1110.60 0.3258988
1110.70 0.3258253
1110.80 0.3257519
1110.90 0.3256785
1111.00 0.3256051
1111.10 0.3255317
1111.20 0.3254584
1111.30 0.325385
1111.40 0.3253117
1111.50 0.3252385
1111.60 0.3251652
1111.70 0.325092
1111.80 0.3250187
1111.90 0.3249455
1112.00 0.3248724
1112.10 0.3247992
1112.20 0.3247261
1112.30 0.324653
1112.40 0.3245799
1112.50 0.3245068
1112.60 0.3244338
1112.70 0.3243607
1112.80 0.3242877
1112.90 0.3242147
1113.00 0.3241418
1113.10 0.3240688
1113.20 0.3239959
1113.30 0.323923
1113.40 0.3238501
1113.50 0.3237773
1113.60 0.3237044
1113.70 0.3236316
1113.80 0.3235588
1113.90 0.323486
1114.00 0.3234133
1114.10 0.3233405
1114.20 0.3232678
1114.30 0.3231951
1114.40 0.3231225
1114.50 0.3230498
1114.60 0.3229772
1114.70 0.3229046
1114.80 0.322832
1114.90 0.3227594
1115.00 0.3226869
1115.10 0.3226143
1115.20 0.3225418
1115.30 0.3224693
1115.40 0.3223969
1115.50 0.3223244
1115.60 0.322252
1115.70 0.3221796
1115.80 0.3221072
1115.90 0.3220349
1116.00 0.3219625
1116.10 0.3218902
1116.20 0.3218179
1116.30 0.3217456
1116.40 0.3216734
1116.50 0.3216012
1116.60 0.3215289
1116.70 0.3214567
1116.80 0.3213841
1116.90 0.3213109
1117.00 0.3212378
1117.10 0.3211646
1117.20 0.3210915
1117.30 0.3210184
1117.40 0.3209453
1117.50 0.3208723
1117.60 0.3207993
1117.70 0.3207262
1117.80 0.3206533
1117.90 0.3205803
1118.00 0.3205073
1118.10 0.3204344
1118.20 0.3203615
1118.30 0.3202886
1118.40 0.3202158
1118.50 0.3201429
1118.60 0.3200701
1118.70 0.3199973
1118.80 0.3199245
1118.90 0.3198517
1119.00 0.319779
1119.10 0.3197063
1119.20 0.3196336
1119.30 0.3195609
1119.40 0.3194883
1119.50 0.3194156
1119.60 0.319343
1119.70 0.3192704
1119.80 0.3191978
1119.90 0.3191253
1120.00 0.3190528
1120.10 0.3189802
1120.20 0.3189078
1120.30 0.3188353
1120.40 0.3187628
1120.50 0.3186904
1120.60 0.318618
1120.70 0.3185456
1120.80 0.3184733
1120.90 0.3184009
1121.00 0.3183286
1121.10 0.3182563
1121.20 0.318184
1121.30 0.3181117
1121.40 0.3180395
1121.50 0.3179673
1121.60 0.3178951
1121.70 0.3178229
1121.80 0.3177508
1121.90 0.3176786
1122.00 0.3176065
1122.10 0.3175344
1122.20 0.3174623
1122.30 0.3173903
1122.40 0.3173187
1122.50 0.3172475
1122.60 0.3171763
1122.70 0.3171051
1122.80 0.3170339
1122.90 0.3169627
1123.00 0.3168916
1123.10 0.3168205
1123.20 0.3167494
1123.30 0.3166783
1123.40 0.3166072
1123.50 0.3165362
1123.60 0.3164652
1123.70 0.3163942
1123.80 0.3163232
1123.90 0.3162522
1124.00 0.3161813
1124.10 0.3161104
1124.20 0.3160395
1124.30 0.3159686
1124.40 0.3158977
1124.50 0.3158269
1124.60 0.3157561
1124.70 0.3156853
1124.80 0.3156145
1124.90 0.3155438
1125.00 0.315473
1125.10 0.3154023
1125.20 0.3153316
1125.30 0.3152609
1125.40 0.3151903
1125.50 0.3151197
1125.60 0.315049
1125.70 0.3149784
1125.80 0.3149079
1125.90 0.3148373
1126.00 0.3147668
1126.10 0.3146963
1126.20 0.3146258
1126.30 0.3145553
1126.40 0.3144849
1126.50 0.3144144
1126.60 0.314344
1126.70 0.3142736
1126.80 0.3142032
1126.90 0.3141329
1127.00 0.3140625
1127.10 0.3139922
1127.20 0.3139219
1127.30 0.3138517
1127.40 0.3137814
1127.50 0.3137112
1127.60 0.313641
1127.70 0.3135708
1127.80 0.3135006
1127.90 0.3134304
1128.00 0.3133598
1128.10 0.3132891
1128.20 0.3132184
1128.30 0.3131477
1128.40 0.3130771
1128.50 0.3130064
1128.60 0.3129358
1128.70 0.3128652
1128.80 0.3127946
1128.90 0.312724
1129.00 0.3126535
1129.10 0.312583
1129.20 0.3125125
1129.30 0.312442
1129.40 0.3123715
1129.50 0.3123011
1129.60 0.3122307
1129.70 0.3121603
1129.80 0.3120899
1129.90 0.3120195
1130.00 0.3119492
1130.10 0.3118788
1130.20 0.3118085
1130.30 0.3117383
1130.40 0.311668
1130.50 0.3115977
1130.60 0.3115275
1130.70 0.3114573
1130.80 0.3113871
1130.90 0.311317
1131.00 0.3112468
1131.10 0.3111767
1131.20 0.3111066
1131.30 0.3110365
1131.40 0.3109665
1131.50 0.3108964
1131.60 0.3108264
1131.70 0.3107564
1131.80 0.3106864
1131.90 0.3106164
1132.00 0.3105465
1132.10 0.3104766
1132.20 0.3104067
1132.30 0.3103368
1132.40 0.3102669
1132.50 0.3101971
1132.60 0.3101272
1132.70 0.3100574
1132.80 0.3099876
1132.90 0.3099179
1133.00 0.3098481
1133.10 0.3097784
1133.20 0.3097087
1133.30 0.309639
1133.40 0.3095693
1133.50 0.3094997
1133.60 0.3094301
1133.70 0.3093605
1133.80 0.3092909
1133.90 0.3092213
1134.00 0.3091518
1134.10 0.3090822
1134.20 0.3090127
1134.30 0.3089432
1134.40 0.3088738
1134.50 0.3088043
1134.60 0.3087349
1134.70 0.3086655
1134.80 0.3085961
1134.90 0.3085267
1135.00 0.3084574
1135.10 0.308388
1135.20 0.3083187
1135.30 0.3082494
1135.40 0.3081801
1135.50 0.3081109
1135.60 0.3080417
1135.70 0.3079724
1135.80 0.3079032
1135.90 0.3078341
1136.00 0.3077649
1136.10 0.3076958
1136.20 0.3076267
1136.30 0.3075576
1136.40 0.3074885
1136.50 0.3074194
1136.60 0.3073504
1136.70 0.3072814
1136.80 0.3072124
1136.90 0.3071434
1137.00 0.3070744
1137.10 0.3070055
1137.20 0.3069366
1137.30 0.3068677
1137.40 0.3067988
1137.50 0.3067299
1137.60 0.3066611
1137.70 0.3065923
1137.80 0.3065235
1137.90 0.3064547
1138.00 0.3063859
1138.10 0.3063172
1138.20 0.3062484
1138.30 0.3061797
1138.40 0.306111
1138.50 0.3060424
1138.60 0.3059737
1138.70 0.3059051
1138.80 0.3058365
1138.90 0.3057679
1139.00 0.3056993
1139.10 0.3056308
1139.20 0.3055622
1139.30 0.3054935
1139.40 0.3054248
1139.50 0.3053561
1139.60 0.3052874
1139.70 0.3052188
1139.80 0.3051501
1139.90 0.3050815
1140.00 0.3050129
1140.10 0.3049443
1140.20 0.3048758
1140.30 0.3048072
1140.40 0.3047387
1140.50 0.3046702
1140.60 0.3046017
1140.70 0.3045333
1140.80 0.3044648
1140.90 0.3043964
1141.00 0.304328
1141.10 0.3042596
1141.20 0.3041912
1141.30 0.3041229
1141.40 0.3040545
1141.50 0.3039862
1141.60 0.3039179
1141.70 0.3038497
1141.80 0.3037814
1141.90 0.3037132
1142.00 0.303645
1142.10 0.3035768
1142.20 0.3035086
1142.30 0.3034405
1142.40 0.3033723
1142.50 0.3033042
1142.60 0.3032361
1142.70 0.303168
1142.80 0.3031
1142.90 0.3030319
1143.00 0.3029639
1143.10 0.3028959
1143.20 0.3028279
1143.30 0.30276
1143.40 0.302692
1143.50 0.3026241
1143.60 0.3025562
1143.70 0.3024883
1143.80 0.3024204
1143.90 0.3023526
1144.00 0.3022847
1144.10 0.3022169
1144.20 0.3021491
1144.30 0.3020814
1144.40 0.3020136
1144.50 0.3019459
1144.60 0.3018782
1144.70 0.3018105
1144.80 0.3017428
1144.90 0.3016751
1145.00 0.3016075
1145.10 0.3015399
1145.20 0.3014723
1145.30 0.3014047
1145.40 0.3013371
1145.50 0.3012696
1145.60 0.3012021
1145.70 0.3011345
1145.80 0.3010671
1145.90 0.3009996
1146.00 0.3009321
1146.10 0.3008647
1146.20 0.3007973
1146.30 0.3007299
1146.40 0.3006625
1146.50 0.3005952
1146.60 0.3005278
1146.70 0.3004605
1146.80 0.3003932
1146.90 0.300326
1147.00 0.3002587
1147.10 0.3001914
1147.20 0.3001242
1147.30 0.300057
1147.40 0.2999898
1147.50 0.2999227
1147.60 0.2998555
1147.70 0.2997884
1147.80 0.2997213
1147.90 0.2996542
1148.00 0.2995871
1148.10 0.2995201
1148.20 0.299453
1148.30 0.299386
1148.40 0.299319
1148.50 0.2992521
1148.60 0.2991851
1148.70 0.2991182
1148.80 0.2990512
1148.90 0.2989843
1149.00 0.2989174
1149.10 0.2988506
1149.20 0.2987837
1149.30 0.2987169
1149.40 0.2986501
1149.50 0.2985833
1149.60 0.2985165
1149.70 0.2984498
1149.80 0.2983831
1149.90 0.2983163
1150.00 0.2982496
1150.10 0.298183
1150.20 0.2981163
1150.30 0.2980497
1150.40 0.297983
1150.50 0.2979164
1150.60 0.2978498
1150.70 0.2977831
1150.80 0.2977163
1150.90 0.2976496
1151.00 0.2975828
1151.10 0.2975161
1151.20 0.2974494
1151.30 0.2973828
1151.40 0.2973161
1151.50 0.2972495
1151.60 0.2971829
1151.70 0.2971163
1151.80 0.2970497
1151.90 0.2969832
1152.00 0.2969166
1152.10 0.2968501
1152.20 0.2967836
1152.30 0.2967171
1152.40 0.2966507
1152.50 0.2965842
1152.60 0.2965178
1152.70 0.2964514
1152.80 0.296385
1152.90 0.2963186
1153.00 0.2962523
1153.10 0.296186
1153.20 0.2961196
1153.30 0.2960534
1153.40 0.2959871
1153.50 0.2959208
1153.60 0.2958546
1153.70 0.2957884
1153.80 0.2957222
1153.90 0.295656
1154.00 0.2955898
1154.10 0.2955237
1154.20 0.2954575
1154.30 0.2953914
1154.40 0.2953253
1154.50 0.2952593
1154.60 0.2951932
1154.70 0.2951272
1154.80 0.2950612
1154.90 0.2949952
1155.00 0.2949292
1155.10 0.2948632
1155.20 0.2947973
1155.30 0.2947313
1155.40 0.2946654
1155.50 0.2945995
1155.60 0.2945337
1155.70 0.2944678
1155.80 0.294402
1155.90 0.2943362
1156.00 0.2942704
1156.10 0.2942046
1156.20 0.2941388
1156.30 0.2940731
1156.40 0.2940074
1156.50 0.2939417
1156.60 0.293876
1156.70 0.2938103
1156.80 0.2937447
1156.90 0.2936791
1157.00 0.2936135
1157.10 0.2935479
1157.20 0.2934823
1157.30 0.2934167
1157.40 0.2933512
1157.50 0.2932857
1157.60 0.2932202
1157.70 0.2931547
1157.80 0.2930892
1157.90 0.2930238
1158.00 0.2929584
1158.10 0.292893
1158.20 0.2928276
1158.30 0.2927622
1158.40 0.2926969
1158.50 0.2926315
1158.60 0.2925662
1158.70 0.2925009
1158.80 0.2924356
1158.90 0.2923704
1159.00 0.2923051
1159.10 0.2922399
1159.20 0.2921747
1159.30 0.2921095
1159.40 0.2920443
1159.50 0.2919792
1159.60 0.291914
1159.70 0.2918489
1159.80 0.2917838
1159.90 0.2917188
1160.00 0.2916537
1160.10 0.2915886
1160.20 0.2915236
1160.30 0.2914586
1160.40 0.2913936
1160.50 0.2913286
1160.60 0.2912637
1160.70 0.2911988
1160.80 0.2911338
1160.90 0.2910689
1161.00 0.2910041
1161.10 0.2909392
1161.20 0.2908744
1161.30 0.2908095
1161.40 0.2907447
1161.50 0.2906799
1161.60 0.2906152
1161.70 0.2905504
1161.80 0.2904857
1161.90 0.2904209
1162.00 0.2903562
1162.10 0.2902916
1162.20 0.2902263
1162.30 0.2901611
1162.40 0.290096
1162.50 0.2900308
1162.60 0.2899656
1162.70 0.2899005
1162.80 0.2898354
1162.90 0.2897703
1163.00 0.2897052
1163.10 0.2896402
1163.20 0.2895752
1163.30 0.2895101
1163.40 0.2894451
1163.50 0.2893802
1163.60 0.2893152
1163.70 0.2892502
1163.80 0.2891853
1163.90 0.2891204
1164.00 0.2890555
1164.10 0.2889906
1164.20 0.2889258
1164.30 0.2888609
1164.40 0.2887961
1164.50 0.2887313
1164.60 0.2886665
1164.70 0.2886018
1164.80 0.288537
1164.90 0.2884723
1165.00 0.2884076
1165.10 0.2883429
1165.20 0.2882782
1165.30 0.2882136
1165.40 0.2881489
1165.50 0.2880843
1165.60 0.2880197
1165.70 0.2879551
1165.80 0.2878905
1165.90 0.287826
1166.00 0.2877615
1166.10 0.2876969
1166.20 0.2876324
1166.30 0.287568
1166.40 0.2875035
1166.50 0.2874391
1166.60 0.2873746
1166.70 0.2873102
1166.80 0.2872458
1166.90 0.2871815
1167.00 0.2871171
1167.10 0.2870528
1167.20 0.2869885
1167.30 0.2869242
1167.40 0.2868599
1167.50 0.2867956
1167.60 0.2867314
1167.70 0.2866671
1167.80 0.2866029
1167.90 0.2865387
1168.00 0.2864752
1168.10 0.2864117
1168.20 0.2863483
1168.30 0.2862848
1168.40 0.2862214
1168.50 0.286158
1168.60 0.2860946
1168.70 0.2860313
1168.80 0.2859679
1168.90 0.2859046
1169.00 0.2858413
1169.10 0.285778
1169.20 0.2857147
1169.30 0.2856514
1169.40 0.2855882
1169.50 0.285525
1169.60 0.2854618
1169.70 0.2853986
1169.80 0.2853354
1169.90 0.2852723
1170.00 0.2852091
1170.10 0.285146
1170.20 0.2850829
1170.30 0.2850198
1170.40 0.2849568
1170.50 0.2848937
1170.60 0.2848307
1170.70 0.2847677
1170.80 0.2847047
1170.90 0.2846417
1171.00 0.2845787
1171.10 0.2845158
1171.20 0.2844528
1171.30 0.2843899
1171.40 0.284327
1171.50 0.2842642
1171.60 0.2842013
1171.70 0.2841385
1171.80 0.2840756
1171.90 0.2840128
1172.00 0.28395
1172.10 0.2838873
1172.20 0.2838245
1172.30 0.2837618
1172.40 0.2836991
1172.50 0.2836364
1172.60 0.2835737
1172.70 0.283511
1172.80 0.2834483
1172.90 0.2833857
1173.00 0.2833231
1173.10 0.2832605
1173.20 0.2831979
1173.30 0.2831353
1173.40 0.2830728
1173.50 0.2830103
1173.60 0.2829478
1173.70 0.2828853
1173.80 0.2828224
1173.90 0.2827594
1174.00 0.2826964
1174.10 0.2826334
1174.20 0.2825705
1174.30 0.2825075
1174.40 0.2824446
1174.50 0.2823817
1174.60 0.2823189
1174.70 0.282256
1174.80 0.2821932
1174.90 0.2821303
1175.00 0.2820675
1175.10 0.2820048
1175.20 0.281942
1175.30 0.2818792
1175.40 0.2818165
1175.50 0.2817538
1175.60 0.2816911
1175.70 0.2816284
1175.80 0.2815657
1175.90 0.2815031
1176.00 0.2814404
1176.10 0.2813778
1176.20 0.2813152
1176.30 0.2812526
1176.40 0.2811901
1176.50 0.2811275
1176.60 0.281065
1176.70 0.2810025
1176.80 0.28094
1176.90 0.2808775
1177.00 0.280815
1177.10 0.2807526
1177.20 0.2806902
1177.30 0.2806278
1177.40 0.2805654
1177.50 0.280503
1177.60 0.2804406
1177.70 0.2803783
1177.80 0.280316
1177.90 0.2802537
1178.00 0.2801914
1178.10 0.2801291
1178.20 0.2800668
1178.30 0.2800046
1178.40 0.2799424
1178.50 0.2798802
1178.60 0.279818
1178.70 0.2797558
1178.80 0.2796937
1178.90 0.2796315
1179.00 0.2795694
1179.10 0.2795073
1179.20 0.2794452
1179.30 0.2793832
1179.40 0.2793211
1179.50 0.2792591
1179.60 0.2791971
1179.70 0.2791351
1179.80 0.2790731
1179.90 0.2790111
1180.00 0.2789492
1180.10 0.2788872
1180.20 0.2788253
1180.30 0.2787634
1180.40 0.2787016
1180.50 0.2786397
1180.60 0.2785779
1180.70 0.278516
1180.80 0.2784542
1180.90 0.2783924
1181.00 0.2783306
1181.10 0.2782689
1181.20 0.2782071
1181.30 0.2781454
1181.40 0.2780837
1181.50 0.278022
1181.60 0.2779603
1181.70 0.2778987
1181.80 0.277837
1181.90 0.2777754
1182.00 0.2777138
1182.10 0.2776522
1182.20 0.2775906
1182.30 0.2775291
1182.40 0.2774675
1182.50 0.277406
1182.60 0.2773445
1182.70 0.277283
1182.80 0.2772216
1182.90 0.2771601
1183.00 0.2770987
1183.10 0.2770372
1183.20 0.2769758
1183.30 0.2769144
1183.40 0.2768531
1183.50 0.2767917
1183.60 0.2767304
1183.70 0.2766691
1183.80 0.2766078
1183.90 0.2765465
1184.00 0.2764852
1184.10 0.2764239
1184.20 0.2763627
1184.30 0.2763015
1184.40 0.2762403
1184.50 0.2761791
1184.60 0.2761179
1184.70 0.2760568
1184.80 0.2759956
1184.90 0.2759345
1185.00 0.2758734
1185.10 0.2758123
1185.20 0.2757512
1185.30 0.2756902
1185.40 0.2756291
1185.50 0.2755679
1185.60 0.2755064
1185.70 0.2754449
1185.80 0.2753834
1185.90 0.275322
1186.00 0.2752605
1186.10 0.2751991
1186.20 0.2751377
1186.30 0.2750763
1186.40 0.2750149
1186.50 0.2749535
1186.60 0.2748922
1186.70 0.2748308
1186.80 0.2747695
1186.90 0.2747082
1187.00 0.2746469
1187.10 0.2745857
1187.20 0.2745244
1187.30 0.2744632
1187.40 0.274402
1187.50 0.2743408
1187.60 0.2742796
1187.70 0.2742185
1187.80 0.2741573
1187.90 0.2740962
1188.00 0.2740351
1188.10 0.273974
1188.20 0.2739129
1188.30 0.2738518
1188.40 0.2737908
1188.50 0.2737297
1188.60 0.2736687
1188.70 0.2736077
1188.80 0.2735468
1188.90 0.2734858
1189.00 0.2734248
1189.10 0.2733639
1189.20 0.273303
1189.30 0.2732421
1189.40 0.2731812
1189.50 0.2731204
1189.60 0.2730595
1189.70 0.2729987
1189.80 0.2729379
1189.90 0.2728771
1190.00 0.2728163
1190.10 0.2727555
1190.20 0.2726948
1190.30 0.2726341
1190.40 0.2725733
1190.50 0.2725126
1190.60 0.272452
1190.70 0.2723913
1190.80 0.2723306
1190.90 0.27227
1191.00 0.2722094
1191.10 0.2721488
1191.20 0.2720882
1191.30 0.2720277
1191.40 0.2719672
1191.50 0.2719073
1191.60 0.2718475
1191.70 0.2717876
1191.80 0.2717278
1191.90 0.2716679
1192.00 0.2716081
1192.10 0.2715483
1192.20 0.2714886
1192.30 0.2714288
1192.40 0.2713691
1192.50 0.2713094
1192.60 0.2712497
1192.70 0.27119
1192.80 0.2711303
1192.90 0.2710706
1193.00 0.271011
1193.10 0.2709514
1193.20 0.2708918
1193.30 0.2708322
1193.40 0.2707726
1193.50 0.270713
1193.60 0.2706535
1193.70 0.2705939
1193.80 0.2705344
1193.90 0.2704749
1194.00 0.2704155
1194.10 0.270356
1194.20 0.2702965
1194.30 0.2702371
1194.40 0.2701777
1194.50 0.2701183
1194.60 0.2700589
1194.70 0.2699995
1194.80 0.2699402
1194.90 0.2698809
1195.00 0.2698215
1195.10 0.2697622
1195.20 0.269703
1195.30 0.2696437
1195.40 0.2695844
1195.50 0.2695252
1195.60 0.269466
1195.70 0.2694068
1195.80 0.2693476
1195.90 0.2692884
1196.00 0.2692292
1196.10 0.2691701
1196.20 0.269111
1196.30 0.2690519
1196.40 0.2689928
1196.50 0.2689337
1196.60 0.2688746
1196.70 0.2688156
1196.80 0.2687565
1196.90 0.2686975
1197.00 0.2686385
1197.10 0.2685795
1197.20 0.2685206
1197.30 0.2684616
1197.40 0.2684023
1197.50 0.2683428
1197.60 0.2682835
1197.70 0.2682241
1197.80 0.2681647
1197.90 0.2681054
1198.00 0.268046
1198.10 0.2679867
1198.20 0.2679274
1198.30 0.2678681
1198.40 0.2678089
1198.50 0.2677496
1198.60 0.2676904
1198.70 0.2676312
1198.80 0.267572
1198.90 0.2675128
1199.00 0.2674536
1199.10 0.2673944
1199.20 0.2673353
1199.30 0.2672762
1199.40 0.2672171
1199.50 0.267158
1199.60 0.2670989
1199.70 0.2670398
1199.80 0.2669808
1199.90 0.2669218
1200.00 0.2668628
