# Wavelength(nm)  Flambda(ergs/cm^s/s/nm)
300.00 3.260209
300.10 3.258083
300.20 3.255914
300.30 3.253781
300.40 3.251887
300.50 3.249995
300.60 3.248105
300.70 3.246217
300.80 3.24433
300.90 3.242446
301.00 3.240563
301.10 3.238682
301.20 3.236803
301.30 3.234925
301.40 3.23305
301.50 3.231175
301.60 3.229304
301.70 3.227433
301.80 3.225564
301.90 3.223698
302.00 3.221833
302.10 3.219727
302.20 3.217596
302.30 3.215468
302.40 3.213341
302.50 3.211218
302.60 3.209095
302.70 3.206975
302.80 3.204857
302.90 3.202742
303.00 3.200628
303.10 3.198517
303.20 3.196407
303.30 3.194318
303.40 3.192402
303.50 3.190487
303.60 3.188573
303.70 3.186662
303.80 3.184753
303.90 3.182845
304.00 3.180939
304.10 3.179035
304.20 3.177133
304.30 3.175233
304.40 3.173334
304.50 3.171437
304.60 3.169374
304.70 3.167294
304.80 3.165215
304.90 3.16314
305.00 3.161066
305.10 3.158994
305.20 3.156925
305.30 3.154857
305.40 3.152791
305.50 3.150727
305.60 3.148666
305.70 3.146606
305.80 3.144548
305.90 3.142493
306.00 3.140439
306.10 3.138387
306.20 3.136338
306.30 3.134291
306.40 3.132315
306.50 3.130365
306.60 3.128415
306.70 3.126466
306.80 3.12452
306.90 3.122576
307.00 3.120634
307.10 3.118693
307.20 3.116755
307.30 3.114818
307.40 3.112883
307.50 3.110951
307.60 3.10902
307.70 3.107091
307.80 3.105163
307.90 3.103237
308.00 3.101314
308.10 3.099392
308.20 3.097472
308.30 3.095553
308.40 3.093638
308.50 3.091723
308.60 3.08981
308.70 3.0879
308.80 3.085966
308.90 3.083969
309.00 3.081973
309.10 3.079979
309.20 3.077988
309.30 3.075998
309.40 3.073978
309.50 3.071762
309.60 3.06955
309.70 3.067339
309.80 3.065131
309.90 3.062925
310.00 3.060721
310.10 3.058519
310.20 3.05632
310.30 3.054123
310.40 3.052037
310.50 3.050072
310.60 3.048108
310.70 3.046147
310.80 3.044186
310.90 3.042229
311.00 3.040272
311.10 3.038318
311.20 3.036366
311.30 3.034415
311.40 3.032467
311.50 3.03052
311.60 3.028575
311.70 3.026632
311.80 3.024691
311.90 3.022752
312.00 3.020814
312.10 3.018879
312.20 3.016945
312.30 3.014049
312.40 3.010914
312.50 3.008988
312.60 3.007063
312.70 3.00514
312.80 3.003218
312.90 3.0013
313.00 2.999382
313.10 2.997467
313.20 2.995552
313.30 2.993563
313.40 2.991357
313.50 2.989152
313.60 2.986949
313.70 2.984748
313.80 2.982551
313.90 2.980355
314.00 2.978161
314.10 2.975711
314.20 2.973263
314.30 2.970817
314.40 2.968374
314.50 2.965934
314.60 2.963495
314.70 2.96106
314.80 2.95877
314.90 2.956199
315.00 2.952881
315.10 2.949941
315.20 2.947004
315.30 2.94407
315.40 2.941139
315.50 2.938212
315.60 2.935288
315.70 2.931835
315.80 2.928387
315.90 2.924943
316.00 2.921501
316.10 2.918593
316.20 2.915689
316.30 2.915961
316.40 2.913061
316.50 2.904881
316.60 2.891429
316.70 2.881161
316.80 2.870905
316.90 2.869093
317.00 2.867284
317.10 2.865476
317.20 2.863668
317.30 2.866698
317.40 2.868082
317.50 2.864797
317.60 2.861514
317.70 2.858236
317.80 2.854962
317.90 2.842141
318.00 2.825318
318.10 2.79582
318.20 2.766359
318.30 2.736934
318.40 2.691393
318.50 2.599964
318.60 2.48723
318.70 2.190737
318.80 1.693499
318.90 2.193402
319.00 2.39337
319.10 2.50726
319.20 2.602173
319.30 2.643391
319.40 2.684558
319.50 2.725673
319.60 2.756417
319.70 2.770036
319.80 2.783637
319.90 2.797221
320.00 2.807406
320.10 2.813917
320.20 2.819445
320.30 2.823775
320.40 2.827375
320.50 2.829115
320.60 2.831511
320.70 2.832833
320.80 2.833412
320.90 2.833188
321.00 2.832964
321.10 2.83274
321.20 2.834014
321.30 2.83296
321.40 2.831906
321.50 2.830853
321.60 2.829801
321.70 2.82875
321.80 2.828023
321.90 2.827647
322.00 2.826023
322.10 2.824522
322.20 2.823022
322.30 2.821525
322.40 2.820028
322.50 2.818533
322.60 2.817038
322.70 2.815545
322.80 2.81398
322.90 2.812418
323.00 2.810857
323.10 2.809297
323.20 2.807739
323.30 2.806182
323.40 2.804626
323.50 2.803072
323.60 2.80152
323.70 2.799969
323.80 2.798419
323.90 2.79687
324.00 2.795144
324.10 2.793419
324.20 2.791697
324.30 2.789975
324.40 2.788256
324.50 2.786537
324.60 2.78482
324.70 2.783106
324.80 2.781392
324.90 2.77968
325.00 2.777969
325.10 2.776261
325.20 2.774553
325.30 2.772848
325.40 2.771144
325.50 2.769442
325.60 2.767741
325.70 2.766041
325.80 2.764344
325.90 2.762648
326.00 2.760953
326.10 2.75926
326.20 2.757568
326.30 2.755878
326.40 2.75419
326.50 2.752503
326.60 2.750818
326.70 2.749134
326.80 2.747452
326.90 2.745772
327.00 2.744093
327.10 2.742415
327.20 2.740738
327.30 2.739064
327.40 2.737392
327.50 2.73572
327.60 2.73405
327.70 2.732381
327.80 2.730715
327.90 2.729049
328.00 2.727004
328.10 2.724494
328.20 2.721987
328.30 2.719482
328.40 2.716981
328.50 2.715613
328.60 2.714513
328.70 2.713413
328.80 2.712172
328.90 2.710523
329.00 2.708875
329.10 2.707229
329.20 2.705585
329.30 2.703942
329.40 2.7023
329.50 2.700661
329.60 2.699021
329.70 2.697384
329.80 2.695749
329.90 2.694115
330.00 2.692482
330.10 2.690851
330.20 2.689222
330.30 2.687593
330.40 2.685883
330.50 2.684082
330.60 2.682282
330.70 2.680485
330.80 2.67869
330.90 2.676895
331.00 2.675104
331.10 2.673312
331.20 2.671523
331.30 2.669736
331.40 2.66795
331.50 2.666245
331.60 2.664637
331.70 2.663031
331.80 2.661289
331.90 2.659544
332.00 2.657799
332.10 2.656057
332.20 2.654315
332.30 2.652577
332.40 2.650839
332.50 2.649103
332.60 2.647369
332.70 2.645636
332.80 2.643904
332.90 2.642175
333.00 2.640447
333.10 2.638699
333.20 2.636924
333.30 2.635152
333.40 2.633381
333.50 2.631611
333.60 2.629844
333.70 2.628078
333.80 2.626313
333.90 2.62455
334.00 2.622789
334.10 2.62083
334.20 2.618631
334.30 2.616433
334.40 2.614237
334.50 2.612044
334.60 2.609852
334.70 2.607128
334.80 2.604205
334.90 2.601929
335.00 2.599656
335.10 2.597105
335.20 2.593671
335.30 2.590853
335.40 2.584604
335.50 2.586355
335.60 2.587634
335.70 2.587219
335.80 2.586617
335.90 2.586015
336.00 2.585414
336.10 2.584812
336.20 2.584212
336.30 2.58319
336.40 2.581654
336.50 2.580121
336.60 2.578587
336.70 2.577056
336.80 2.575526
336.90 2.574205
337.00 2.573139
337.10 2.572074
337.20 2.571009
337.30 2.569756
337.40 2.568234
337.50 2.566712
337.60 2.565192
337.70 2.563673
337.80 2.562155
337.90 2.560639
338.00 2.559124
338.10 2.55761
338.20 2.556097
338.30 2.554587
338.40 2.553017
338.50 2.551301
338.60 2.549586
338.70 2.547873
338.80 2.546161
338.90 2.544451
339.00 2.542743
339.10 2.541036
339.20 2.539331
339.30 2.537712
339.40 2.536217
339.50 2.53466
339.60 2.533026
339.70 2.531395
339.80 2.529765
339.90 2.528135
340.00 2.526508
340.10 2.524883
340.20 2.523258
340.30 2.521635
340.40 2.520013
340.50 2.518393
340.60 2.516775
340.70 2.515158
340.80 2.5136
340.90 2.512125
341.00 2.510549
341.10 2.508851
341.20 2.507153
341.30 2.505456
341.40 2.503762
341.50 2.502068
341.60 2.500378
341.70 2.498688
341.80 2.496909
341.90 2.495023
342.00 2.493138
342.10 2.491255
342.20 2.489458
342.30 2.486965
342.40 2.484497
342.50 2.482441
342.60 2.480387
342.70 2.478334
342.80 2.476284
342.90 2.474235
343.00 2.47206
343.10 2.469729
343.20 2.4674
343.30 2.465074
343.40 2.462624
343.50 2.459993
343.60 2.457366
343.70 2.454742
343.80 2.45212
343.90 2.449501
344.00 2.446456
344.10 2.4428
344.20 2.439146
344.30 2.435498
344.40 2.430938
344.50 2.425067
344.60 2.419158
344.70 2.406129
344.80 2.412969
344.90 2.418689
345.00 2.42185
345.10 2.423113
345.20 2.424019
345.30 2.424415
345.40 2.42481
345.50 2.425163
345.60 2.425128
345.70 2.424611
345.80 2.424094
345.90 2.423578
346.00 2.423061
346.10 2.422545
346.20 2.421739
346.30 2.420517
346.40 2.419296
346.50 2.418076
346.60 2.416857
346.70 2.41564
346.80 2.414423
346.90 2.413206
347.00 2.411992
347.10 2.410778
347.20 2.409494
347.30 2.408105
347.40 2.406719
347.50 2.405334
347.60 2.403951
347.70 2.402568
347.80 2.401187
347.90 2.399806
348.00 2.398428
348.10 2.39705
348.20 2.395673
348.30 2.394298
348.40 2.392923
348.50 2.39155
348.60 2.390179
348.70 2.388808
348.80 2.387391
348.90 2.385907
349.00 2.384424
349.10 2.382942
349.20 2.381461
349.30 2.379982
349.40 2.378504
349.50 2.377028
349.60 2.375553
349.70 2.374079
349.80 2.372607
349.90 2.371135
350.00 2.369666
350.10 2.368197
350.20 2.36673
350.30 2.365247
350.40 2.36374
350.50 2.362236
350.60 2.360733
350.70 2.359231
350.80 2.357731
350.90 2.356231
351.00 2.354733
351.10 2.353236
351.20 2.351742
351.30 2.350247
351.40 2.34881
351.50 2.347475
351.60 2.34614
351.70 2.344805
351.80 2.343473
351.90 2.342141
352.00 2.34081
352.10 2.339481
352.20 2.337122
352.30 2.335059
352.40 2.333587
352.50 2.332117
352.60 2.330648
352.70 2.32918
352.80 2.327713
352.90 2.326247
353.00 2.324783
353.10 2.323321
353.20 2.321859
353.30 2.320399
353.40 2.31894
353.50 2.317598
353.60 2.316289
353.70 2.314979
353.80 2.31367
353.90 2.312295
354.00 2.3108
354.10 2.309306
354.20 2.307814
354.30 2.306323
354.40 2.304833
354.50 2.303344
354.60 2.301858
354.70 2.300372
354.80 2.298964
354.90 2.297669
355.00 2.296375
355.10 2.295081
355.20 2.29379
355.30 2.29211
355.40 2.290431
355.50 2.288754
355.60 2.287078
355.70 2.285673
355.80 2.284388
355.90 2.283104
356.00 2.281729
356.10 2.280332
356.20 2.278936
356.30 2.277542
356.40 2.276148
356.50 2.274756
356.60 2.273365
356.70 2.271976
356.80 2.270587
356.90 2.2692
357.00 2.267814
357.10 2.266429
357.20 2.265046
357.30 2.263662
357.40 2.262145
357.50 2.260387
357.60 2.25863
357.70 2.256875
357.80 2.255613
357.90 2.254353
358.00 2.252841
358.10 2.251266
358.20 2.249694
358.30 2.248122
358.40 2.246552
358.50 2.244983
358.60 2.243416
358.70 2.241851
358.80 2.240286
358.90 2.238723
359.00 2.237009
359.10 2.235027
359.20 2.232959
359.30 2.230309
359.40 2.227661
359.50 2.225673
359.60 2.22385
359.70 2.22203
359.80 2.218937
359.90 2.215846
360.00 2.212333
360.10 2.208064
360.20 2.203799
360.30 2.199539
360.40 2.195284
360.50 2.191033
360.60 2.185814
360.70 2.178093
360.80 2.170381
360.90 2.162677
361.00 2.153143
361.10 2.140611
361.20 2.125724
361.30 2.095031
361.40 2.115105
361.50 2.145849
361.60 2.154862
361.70 2.157717
361.80 2.160476
361.90 2.163072
362.00 2.165663
362.10 2.167018
362.20 2.167637
362.30 2.167502
362.40 2.167367
362.50 2.167231
362.60 2.167095
362.70 2.166112
362.80 2.164918
362.90 2.162926
363.00 2.160934
363.10 2.156833
363.20 2.152714
363.30 2.146131
363.40 2.139339
363.50 2.145372
363.60 2.153
363.70 2.156173
363.80 2.157832
363.90 2.15893
364.00 2.160027
364.10 2.161121
364.20 2.162215
364.30 2.162902
364.40 2.163486
364.50 2.163903
364.60 2.163775
364.70 2.163646
364.80 2.163517
364.90 2.162331
365.00 2.161146
365.10 2.159962
365.20 2.157986
365.30 2.156805
365.40 2.158003
365.50 2.158407
365.60 2.158811
365.70 2.15835
365.80 2.157888
365.90 2.156853
366.00 2.155675
366.10 2.154886
366.20 2.154096
366.30 2.153308
366.40 2.152521
366.50 2.151373
366.60 2.1502
366.70 2.149027
366.80 2.147855
366.90 2.146583
367.00 2.14513
367.10 2.143679
367.20 2.14223
367.30 2.140781
367.40 2.139333
367.50 2.138113
367.60 2.13695
367.70 2.134552
367.80 2.132156
367.90 2.129761
368.00 2.127617
368.10 2.124918
368.20 2.122123
368.30 2.119336
368.40 2.11655
368.50 2.113766
368.60 2.110986
368.70 2.108207
368.80 2.105432
368.90 2.102248
369.00 2.098491
369.10 2.094779
369.20 2.090512
369.30 2.086275
369.40 2.082043
369.50 2.077815
369.60 2.072836
369.70 2.067861
369.80 2.061734
369.90 2.055602
370.00 2.049475
370.10 2.043314
370.20 2.031454
370.30 2.01955
370.40 2.000066
370.50 1.98555
370.60 2.005885
370.70 2.02587
370.80 2.034737
370.90 2.043593
371.00 2.046417
371.10 2.049176
371.20 2.05113
371.30 2.053081
371.40 2.056104
371.50 2.057854
371.60 2.059602
371.70 2.061348
371.80 2.06309
371.90 2.064831
372.00 2.066591
372.10 2.068757
372.20 2.069174
372.30 2.069589
372.40 2.070004
372.50 2.070419
372.60 2.070833
372.70 2.071246
372.80 2.07165
372.90 2.072055
373.00 2.071716
373.10 2.07137
373.20 2.069499
373.30 2.067632
373.40 2.058932
373.50 2.060106
373.60 2.063554
373.70 2.064724
373.80 2.065797
373.90 2.067058
374.00 2.067088
374.10 2.067118
374.20 2.067147
374.30 2.067176
374.40 2.067016
374.50 2.066478
374.60 2.066123
374.70 2.065777
374.80 2.06543
374.90 2.065083
375.00 2.064484
375.10 2.063884
375.20 2.063286
375.30 2.062187
375.40 2.061088
375.50 2.059991
375.60 2.058894
375.70 2.057798
375.80 2.056703
375.90 2.055609
376.00 2.054516
376.10 2.053423
376.20 2.052331
376.30 2.051241
376.40 2.050151
376.50 2.048856
376.60 2.047254
376.70 2.045653
376.80 2.044136
376.90 2.042704
377.00 2.041274
377.10 2.039843
377.20 2.038293
377.30 2.036287
377.40 2.034281
377.50 2.032278
377.60 2.030233
377.70 2.028191
377.80 2.02615
377.90 2.024111
378.00 2.022461
378.10 2.019694
378.20 2.016913
378.30 2.014135
378.40 2.011359
378.50 2.008586
378.60 2.005815
378.70 2.003048
378.80 2.000283
378.90 1.997353
379.00 1.994116
379.10 1.990707
379.20 1.987301
379.30 1.983653
379.40 1.97976
379.50 1.975872
379.60 1.971644
379.70 1.96663
379.80 1.960596
379.90 1.954566
380.00 1.948544
380.10 1.942528
380.20 1.936517
380.30 1.930513
380.40 1.924514
380.50 1.918522
380.60 1.909625
380.70 1.899991
380.80 1.890366
380.90 1.880751
381.00 1.871146
381.10 1.861965
381.20 1.851538
381.30 1.840081
381.40 1.825876
381.50 1.810747
381.60 1.792991
381.70 1.770378
381.80 1.742771
381.90 1.689603
382.00 1.662604
382.10 1.740761
382.20 1.778835
382.30 1.804702
382.40 1.825165
382.50 1.837545
382.60 1.849912
382.70 1.860207
382.80 1.865893
382.90 1.869293
383.00 1.872691
383.10 1.876084
383.20 1.879561
383.30 1.883357
383.40 1.887297
383.50 1.891453
383.60 1.895107
383.70 1.897719
383.80 1.900329
383.90 1.902935
384.00 1.905538
384.10 1.908137
384.20 1.910735
384.30 1.913329
384.40 1.915296
384.50 1.916636
384.60 1.917975
384.70 1.919312
384.80 1.920856
384.90 1.922447
385.00 1.922675
385.10 1.922929
385.20 1.923987
385.30 1.924436
385.40 1.924493
385.50 1.924159
385.60 1.923824
385.70 1.92349
385.80 1.923018
385.90 1.922021
386.00 1.921025
386.10 1.919932
386.20 1.917841
386.30 1.915753
386.40 1.913522
386.50 1.909223
386.60 1.903028
386.70 1.889301
386.80 1.866746
386.90 1.877449
387.00 1.880755
387.10 1.881902
387.20 1.883331
387.30 1.884158
387.40 1.884596
387.50 1.883624
387.60 1.880428
387.70 1.875585
387.80 1.870747
387.90 1.865914
388.00 1.86018
388.10 1.849812
388.20 1.829675
388.30 1.804662
388.40 1.779675
388.50 1.74332
388.60 1.679432
388.70 1.572881
388.80 1.338076
388.90 1.199599
389.00 1.472952
389.10 1.60569
389.20 1.683145
389.30 1.733003
389.40 1.76648
389.50 1.794627
389.60 1.813778
389.70 1.826204
389.80 1.833324
389.90 1.840436
390.00 1.847541
390.10 1.854638
390.20 1.861728
390.30 1.866478
390.40 1.868596
390.50 1.870712
390.60 1.872826
390.70 1.874937
390.80 1.876294
390.90 1.8769
391.00 1.876725
391.10 1.87711
391.20 1.877212
391.30 1.876468
391.40 1.87597
391.50 1.875473
391.60 1.874975
391.70 1.874478
391.80 1.87398
391.90 1.873268
392.00 1.872313
392.10 1.871357
392.20 1.870403
392.30 1.868982
392.40 1.867122
392.50 1.86593
392.60 1.863847
392.70 1.861525
392.80 1.86195
392.90 1.861257
393.00 1.861039
393.10 1.860478
393.20 1.859533
393.30 1.858587
393.40 1.857642
393.50 1.856698
393.60 1.854917
393.70 1.853446
393.80 1.852444
393.90 1.850821
394.00 1.849261
394.10 1.847672
394.20 1.845352
394.30 1.843133
394.40 1.841317
394.50 1.839136
394.60 1.836684
394.70 1.834031
394.80 1.83061
394.90 1.827136
395.00 1.822073
395.10 1.81809
395.20 1.812475
395.30 1.806704
395.40 1.800937
395.50 1.793095
395.60 1.78449
395.70 1.774067
395.80 1.758722
395.90 1.743393
396.00 1.727303
396.10 1.699959
396.20 1.663361
396.30 1.621888
396.40 1.542421
396.50 1.575039
396.60 1.687304
396.70 1.718038
396.80 1.722957
396.90 1.725844
397.00 1.740825
397.10 1.760086
397.20 1.770834
397.30 1.773523
397.40 1.774317
397.50 1.77511
397.60 1.775878
397.70 1.776409
397.80 1.776939
397.90 1.777343
398.00 1.777404
398.10 1.777466
398.20 1.777078
398.30 1.776186
398.40 1.775264
398.50 1.773347
398.60 1.771135
398.70 1.76909
398.80 1.767117
398.90 1.764835
399.00 1.76198
399.10 1.759549
399.20 1.75623
399.30 1.752914
399.40 1.749602
399.50 1.746292
399.60 1.742084
399.70 1.737547
399.80 1.733015
399.90 1.728486
400.00 1.72395
400.10 1.719019
400.20 1.713885
400.30 1.707645
400.40 1.701051
400.50 1.693373
400.60 1.685912
400.70 1.677819
400.80 1.669127
400.90 1.657098
401.00 1.648181
401.10 1.641398
401.20 1.633643
401.30 1.623552
401.40 1.611565
401.50 1.599088
401.60 1.58649
401.70 1.569553
401.80 1.551033
401.90 1.529463
402.00 1.507079
402.10 1.480899
402.20 1.449038
402.30 1.410786
402.40 1.356064
402.50 1.277237
402.60 1.161715
402.70 1.242288
402.80 1.352451
402.90 1.40825
403.00 1.457737
403.10 1.494407
403.20 1.523066
403.30 1.547341
403.40 1.567625
403.50 1.584755
403.60 1.601165
403.70 1.614673
403.80 1.624549
403.90 1.633329
404.00 1.64175
404.10 1.646483
404.20 1.650202
404.30 1.653919
404.40 1.653102
404.50 1.650991
404.60 1.648882
404.70 1.650652
404.80 1.652571
404.90 1.65677
405.00 1.660281
405.10 1.663611
405.20 1.666935
405.30 1.670255
405.40 1.672866
405.50 1.675474
405.60 1.67808
405.70 1.680683
405.80 1.683283
405.90 1.68588
406.00 1.687376
406.10 1.68887
406.20 1.690361
406.30 1.691852
406.40 1.693271
406.50 1.694365
406.60 1.695447
406.70 1.695813
406.80 1.696479
406.90 1.698093
407.00 1.698281
407.10 1.698469
407.20 1.698656
407.30 1.698843
407.40 1.69903
407.50 1.699216
407.60 1.699402
407.70 1.699587
407.80 1.699772
407.90 1.699947
408.00 1.699809
408.10 1.699532
408.20 1.699361
408.30 1.699356
408.40 1.699351
408.50 1.698742
408.60 1.69835
408.70 1.697957
408.80 1.697517
408.90 1.696745
409.00 1.696158
409.10 1.695572
409.20 1.694986
409.30 1.6944
409.40 1.693795
409.50 1.692521
409.60 1.691249
409.70 1.690067
409.80 1.689242
409.90 1.688418
410.00 1.687595
410.10 1.686771
410.20 1.685556
410.30 1.684243
410.40 1.682851
410.50 1.681204
410.60 1.679559
410.70 1.677878
410.80 1.676046
410.90 1.674214
411.00 1.67183
411.10 1.669243
411.20 1.666657
411.30 1.664001
411.40 1.660972
411.50 1.655305
411.60 1.649644
411.70 1.642835
411.80 1.631427
411.90 1.618405
412.00 1.587688
412.10 1.517419
412.20 1.533815
412.30 1.555371
412.40 1.572566
412.50 1.58473
412.60 1.59462
412.70 1.601396
412.80 1.607388
412.90 1.611959
413.00 1.615057
413.10 1.615505
413.20 1.615953
413.30 1.616401
413.40 1.616848
413.50 1.617049
413.60 1.616044
413.70 1.614336
413.80 1.612628
413.90 1.610922
414.00 1.608699
414.10 1.604835
414.20 1.600235
414.30 1.590582
414.40 1.580445
414.50 1.588498
414.60 1.594883
414.70 1.599038
414.80 1.602671
414.90 1.604666
415.00 1.606659
415.10 1.60865
415.20 1.610433
415.30 1.61157
415.40 1.612705
415.50 1.613835
415.60 1.614815
415.70 1.615795
415.80 1.616642
415.90 1.617073
416.00 1.617503
416.10 1.617866
416.20 1.617969
416.30 1.61807
416.40 1.618171
416.50 1.618265
416.60 1.618098
416.70 1.617912
416.80 1.616422
416.90 1.613833
417.00 1.61315
417.10 1.614829
417.20 1.614663
417.30 1.614505
417.40 1.61459
417.50 1.614675
417.60 1.614588
417.70 1.613833
417.80 1.613667
417.90 1.613501
418.00 1.613335
418.10 1.613169
418.20 1.613002
418.30 1.612818
418.40 1.612079
418.50 1.61144
418.60 1.610802
418.70 1.610163
418.80 1.609525
418.90 1.608888
419.00 1.608251
419.10 1.607614
419.20 1.606978
419.30 1.606338
419.40 1.605573
419.50 1.604808
419.60 1.604043
419.70 1.603278
419.80 1.602514
419.90 1.601751
420.00 1.600988
420.10 1.600226
420.20 1.599465
420.30 1.598704
420.40 1.597944
420.50 1.597184
420.60 1.596425
420.70 1.595666
420.80 1.594907
420.90 1.594149
421.00 1.593392
421.10 1.592635
421.20 1.591836
421.30 1.590911
421.40 1.589986
421.50 1.589061
421.60 1.588138
421.70 1.587215
421.80 1.586293
421.90 1.585272
422.00 1.583938
422.10 1.582721
422.20 1.581972
422.30 1.581223
422.40 1.580469
422.50 1.579541
422.60 1.578614
422.70 1.577688
422.80 1.576762
422.90 1.575837
423.00 1.574913
423.10 1.573989
423.20 1.573065
423.30 1.572143
423.40 1.571222
423.50 1.570301
423.60 1.569381
423.70 1.568462
423.80 1.567542
423.90 1.566624
424.00 1.565707
424.10 1.564791
424.20 1.563874
424.30 1.562959
424.40 1.56208
424.50 1.561107
424.60 1.560134
424.70 1.559162
424.80 1.558191
424.90 1.557221
425.00 1.556252
425.10 1.555283
425.20 1.554315
425.30 1.553348
425.40 1.552382
425.50 1.55142
425.60 1.550458
425.70 1.549498
425.80 1.548538
425.90 1.54758
426.00 1.546621
426.10 1.545664
426.20 1.544707
426.30 1.543751
426.40 1.542795
426.50 1.541841
426.60 1.540887
426.70 1.539934
426.80 1.538982
426.90 1.538029
427.00 1.537064
427.10 1.5361
427.20 1.535136
427.30 1.534173
427.40 1.53321
427.50 1.532248
427.60 1.531288
427.70 1.530328
427.80 1.529369
427.90 1.528409
428.00 1.527452
428.10 1.526495
428.20 1.525538
428.30 1.524582
428.40 1.523628
428.50 1.522673
428.60 1.521719
428.70 1.520766
428.80 1.519812
428.90 1.518827
429.00 1.517843
429.10 1.51686
429.20 1.515877
429.30 1.514896
429.40 1.513914
429.50 1.512934
429.60 1.511954
429.70 1.510976
429.80 1.509998
429.90 1.50902
430.00 1.508043
430.10 1.507067
430.20 1.506092
430.30 1.505119
430.40 1.504145
430.50 1.503172
430.60 1.5022
430.70 1.501229
430.80 1.500258
430.90 1.499288
431.00 1.498319
431.10 1.49735
431.20 1.496383
431.30 1.495407
431.40 1.494316
431.50 1.493225
431.60 1.492135
431.70 1.491046
431.80 1.489959
431.90 1.488872
432.00 1.487786
432.10 1.4867
432.20 1.485615
432.30 1.484532
432.40 1.483448
432.50 1.482367
432.60 1.481286
432.70 1.480205
432.80 1.479126
432.90 1.478047
433.00 1.476969
433.10 1.475893
433.20 1.474816
433.30 1.473734
433.40 1.472566
433.50 1.471399
433.60 1.470233
433.70 1.469068
433.80 1.467846
433.90 1.466555
434.00 1.465157
434.10 1.463694
434.20 1.462231
434.30 1.460771
434.40 1.459311
434.50 1.457852
434.60 1.456395
434.70 1.454938
434.80 1.453458
434.90 1.451642
435.00 1.449827
435.10 1.448013
435.20 1.446201
435.30 1.44439
435.40 1.44258
435.50 1.440773
435.60 1.438967
435.70 1.437162
435.80 1.435359
435.90 1.433557
436.00 1.431757
436.10 1.429959
436.20 1.428161
436.30 1.426154
436.40 1.423858
436.50 1.421146
436.60 1.418435
436.70 1.415727
436.80 1.413021
436.90 1.410317
437.00 1.407616
437.10 1.404918
437.20 1.401644
437.30 1.39784
437.40 1.394015
437.50 1.389876
437.60 1.38574
437.70 1.381607
437.80 1.377478
437.90 1.373353
438.00 1.369122
438.10 1.363446
438.20 1.357773
438.30 1.351965
438.40 1.345086
438.50 1.33071
438.60 1.315577
438.70 1.285414
438.80 1.244779
438.90 1.268005
439.00 1.292803
439.10 1.305939
439.20 1.318622
439.30 1.325426
439.40 1.332224
439.50 1.339016
439.60 1.345563
439.70 1.349523
439.80 1.353296
439.90 1.356178
440.00 1.359057
440.10 1.361934
440.20 1.36467
440.30 1.365578
440.40 1.366487
440.50 1.367393
440.60 1.3683
440.70 1.369205
440.80 1.370109
440.90 1.371012
441.00 1.371915
441.10 1.372816
441.20 1.373657
441.30 1.373706
441.40 1.373452
441.50 1.372829
441.60 1.372208
441.70 1.371587
441.80 1.370634
441.90 1.369684
442.00 1.368732
442.10 1.367783
442.20 1.366833
442.30 1.365885
442.40 1.364607
442.50 1.362927
442.60 1.361249
442.70 1.359671
442.80 1.358209
442.90 1.356263
443.00 1.354164
443.10 1.351877
443.20 1.349109
443.30 1.345898
443.40 1.342407
443.50 1.338573
443.60 1.334849
443.70 1.326451
443.80 1.314836
443.90 1.317869
444.00 1.317438
444.10 1.316308
444.20 1.314347
444.30 1.312511
444.40 1.309466
444.50 1.306423
444.60 1.302738
444.70 1.298269
444.80 1.293225
444.90 1.287651
445.00 1.282081
445.10 1.276517
445.20 1.269715
445.30 1.261403
445.40 1.253099
445.50 1.244802
445.60 1.236512
445.70 1.228229
445.80 1.217301
445.90 1.203936
446.00 1.190584
446.10 1.177242
446.20 1.16223
446.30 1.143351
446.40 1.118071
446.50 1.087783
446.60 1.057523
446.70 1.02729
446.80 0.9842071
446.90 0.9292818
447.00 0.8926596
447.10 0.8113267
447.20 0.7240538
447.30 0.8710409
447.40 0.9477072
447.50 1.005745
447.60 1.051818
447.70 1.086856
447.80 1.112546
447.90 1.135014
448.00 1.15293
448.10 1.166649
448.20 1.180356
448.30 1.19405
448.40 1.207733
448.50 1.221402
448.60 1.23214
448.70 1.240175
448.80 1.248016
448.90 1.253373
449.00 1.258724
449.10 1.26407
449.20 1.269412
449.30 1.274191
449.40 1.277427
449.50 1.280662
449.60 1.283148
449.70 1.284944
449.80 1.286738
449.90 1.28853
450.00 1.290322
450.10 1.29211
450.20 1.293898
450.30 1.295684
450.40 1.296151
450.50 1.296619
450.60 1.297086
450.70 1.297553
450.80 1.298019
450.90 1.298485
451.00 1.298329
451.10 1.298173
451.20 1.297293
451.30 1.296185
451.40 1.293533
451.50 1.290882
451.60 1.286158
451.70 1.276769
451.80 1.268945
451.90 1.268901
452.00 1.271448
452.10 1.273993
452.20 1.275759
452.30 1.277523
452.40 1.279286
452.50 1.281048
452.60 1.282576
452.70 1.283728
452.80 1.284531
452.90 1.285334
453.00 1.286136
453.10 1.286938
453.20 1.287157
453.30 1.287376
453.40 1.287593
453.50 1.287811
453.60 1.288029
453.70 1.288247
453.80 1.288379
453.90 1.288407
454.00 1.288434
454.10 1.288463
454.20 1.288269
454.30 1.288077
454.40 1.287884
454.50 1.287692
454.60 1.287499
454.70 1.287213
454.80 1.286842
454.90 1.286471
455.00 1.2861
455.10 1.285729
455.20 1.285358
455.30 1.284988
455.40 1.284618
455.50 1.284248
455.60 1.283877
455.70 1.283508
455.80 1.282946
455.90 1.282382
456.00 1.28182
456.10 1.281258
456.20 1.280696
456.30 1.280135
456.40 1.279574
456.50 1.279014
456.60 1.278453
456.70 1.277893
456.80 1.277335
456.90 1.276775
457.00 1.276216
457.10 1.275658
457.20 1.275101
457.30 1.274471
457.40 1.273843
457.50 1.273216
457.60 1.272589
457.70 1.271962
457.80 1.271336
457.90 1.27071
458.00 1.270085
458.10 1.269459
458.20 1.268835
458.30 1.268211
458.40 1.267587
458.50 1.266964
458.60 1.26634
458.70 1.265768
458.80 1.265216
458.90 1.264665
459.00 1.264114
459.10 1.263563
459.20 1.263013
459.30 1.262324
459.40 1.261634
459.50 1.260944
459.60 1.260257
459.70 1.259568
459.80 1.25888
459.90 1.258193
460.00 1.257507
460.10 1.256821
460.20 1.256135
460.30 1.25545
460.40 1.254765
460.50 1.254081
460.60 1.253397
460.70 1.252807
460.80 1.252263
460.90 1.25172
461.00 1.251177
461.10 1.250635
461.20 1.249722
461.30 1.24866
461.40 1.248014
461.50 1.247474
461.60 1.246933
461.70 1.246393
461.80 1.245645
461.90 1.244897
462.00 1.24415
462.10 1.243403
462.20 1.242658
462.30 1.241912
462.40 1.241167
462.50 1.240423
462.60 1.239678
462.70 1.238935
462.80 1.238193
462.90 1.23745
463.00 1.236708
463.10 1.235967
463.20 1.235272
463.30 1.234596
463.40 1.233921
463.50 1.233246
463.60 1.232571
463.70 1.231897
463.80 1.231223
463.90 1.23047
464.00 1.229696
464.10 1.228924
464.20 1.228151
464.30 1.227379
464.40 1.226608
464.50 1.225838
464.60 1.225067
464.70 1.224356
464.80 1.223669
464.90 1.222982
465.00 1.222296
465.10 1.22161
465.20 1.220925
465.30 1.220235
465.40 1.219542
465.50 1.218849
465.60 1.218158
465.70 1.217466
465.80 1.216776
465.90 1.216029
466.00 1.215268
466.10 1.214509
466.20 1.21375
466.30 1.212953
466.40 1.21214
466.50 1.21133
466.60 1.210519
466.70 1.209708
466.80 1.208898
466.90 1.20809
467.00 1.207281
467.10 1.206473
467.20 1.205666
467.30 1.205065
467.40 1.204397
467.50 1.203692
467.60 1.202987
467.70 1.202282
467.80 1.201578
467.90 1.200667
468.00 1.19967
468.10 1.198675
468.20 1.197679
468.30 1.196686
468.40 1.195692
468.50 1.195042
468.60 1.194532
468.70 1.193276
468.80 1.19255
468.90 1.19129
469.00 1.19057
469.10 1.189721
469.20 1.188733
469.30 1.187746
469.40 1.186759
469.50 1.185526
469.60 1.184191
469.70 1.182859
469.80 1.181526
469.90 1.179988
470.00 1.178098
470.10 1.175679
470.20 1.172838
470.30 1.170001
470.40 1.167165
470.50 1.164332
470.60 1.158017
470.70 1.150836
470.80 1.143661
470.90 1.136492
471.00 1.121366
471.10 1.095973
471.20 1.049803
471.30 0.9395609
471.40 0.9292544
471.50 1.004186
471.60 1.04174
471.70 1.075076
471.80 1.091454
471.90 1.103588
472.00 1.115712
472.10 1.127825
472.20 1.133147
472.30 1.136769
472.40 1.140388
472.50 1.144004
472.60 1.147616
472.70 1.149797
472.80 1.150484
472.90 1.150944
473.00 1.151405
473.10 1.151864
473.20 1.152322
473.30 1.152781
473.40 1.153238
473.50 1.153695
473.60 1.154152
473.70 1.154609
473.80 1.154494
473.90 1.154237
474.00 1.153981
474.10 1.153725
474.20 1.153449
474.30 1.153167
474.40 1.152884
474.50 1.152602
474.60 1.152301
474.70 1.151816
474.80 1.15133
474.90 1.150846
475.00 1.150361
475.10 1.149877
475.20 1.149393
475.30 1.14891
475.40 1.148333
475.50 1.147735
475.60 1.147137
475.70 1.146539
475.80 1.145941
475.90 1.145344
476.00 1.144747
476.10 1.144152
476.20 1.143445
476.30 1.142695
476.40 1.141946
476.50 1.141197
476.60 1.140447
476.70 1.1397
476.80 1.138952
476.90 1.138297
477.00 1.137665
477.10 1.137034
477.20 1.136404
477.30 1.135774
477.40 1.135144
477.50 1.134514
477.60 1.133886
477.70 1.133257
477.80 1.132629
477.90 1.132002
478.00 1.131374
478.10 1.130747
478.20 1.130121
478.30 1.129495
478.40 1.128869
478.50 1.128244
478.60 1.12762
478.70 1.127104
478.80 1.126633
478.90 1.12602
479.00 1.125371
479.10 1.124723
479.20 1.124076
479.30 1.123428
479.40 1.122762
479.50 1.122085
479.60 1.121408
479.70 1.120732
479.80 1.120056
479.90 1.119381
480.00 1.118706
480.10 1.118032
480.20 1.117358
480.30 1.116684
480.40 1.116012
480.50 1.115339
480.60 1.114667
480.70 1.113996
480.80 1.113325
480.90 1.112653
481.00 1.111983
481.10 1.111313
481.20 1.110601
481.30 1.109888
481.40 1.109177
481.50 1.108466
481.60 1.107755
481.70 1.107044
481.80 1.106334
481.90 1.105625
482.00 1.104916
482.10 1.104208
482.20 1.103499
482.30 1.102783
482.40 1.102067
482.50 1.101352
482.60 1.100637
482.70 1.099923
482.80 1.099209
482.90 1.098496
483.00 1.097783
483.10 1.097071
483.20 1.096359
483.30 1.095648
483.40 1.094937
483.50 1.094226
483.60 1.093516
483.70 1.092894
483.80 1.092272
483.90 1.091649
484.00 1.091028
484.10 1.090407
484.20 1.08968
484.30 1.08891
484.40 1.08814
484.50 1.08737
484.60 1.086601
484.70 1.085834
484.80 1.085089
484.90 1.084344
485.00 1.083598
485.10 1.082854
485.20 1.082111
485.30 1.081367
485.40 1.080625
485.50 1.079882
485.60 1.079141
485.70 1.078286
485.80 1.077432
485.90 1.076578
486.00 1.075725
486.10 1.074872
486.20 1.07402
486.30 1.07317
486.40 1.072319
486.50 1.071469
486.60 1.07062
486.70 1.069769
486.80 1.06889
486.90 1.068013
487.00 1.067136
487.10 1.066259
487.20 1.065086
487.30 1.063915
487.40 1.062745
487.50 1.061576
487.60 1.060407
487.70 1.05924
487.80 1.058073
487.90 1.056906
488.00 1.055742
488.10 1.054577
488.20 1.053403
488.30 1.052096
488.40 1.05079
488.50 1.049485
488.60 1.048181
488.70 1.046878
488.80 1.045147
488.90 1.043417
489.00 1.041576
489.10 1.039448
489.20 1.037323
489.30 1.035198
489.40 1.033075
489.50 1.030954
489.60 1.028834
489.70 1.026716
489.80 1.024338
489.90 1.021135
490.00 1.017936
490.10 1.014739
490.20 1.011545
490.30 1.008354
490.40 1.004421
490.50 1.000492
490.60 0.996565
490.70 0.9926421
490.80 0.9884925
490.90 0.9848059
491.00 0.9813313
491.10 0.9809317
491.20 0.9787768
491.30 0.973555
491.40 0.96458
491.50 0.9543591
491.60 0.9379809
491.70 0.9177513
491.80 0.8973294
491.90 0.8741507
492.00 0.8513799
492.10 0.8498602
492.20 0.7552624
492.30 0.779876
492.40 0.8282637
492.50 0.8588427
492.60 0.881313
492.70 0.895345
492.80 0.9093655
492.90 0.9233745
493.00 0.9368831
493.10 0.9438876
493.20 0.9508865
493.30 0.9578794
493.40 0.9648668
493.50 0.9718483
493.60 0.9760716
493.70 0.9795651
493.80 0.9830564
493.90 0.9863366
494.00 0.9892896
494.10 0.991803
494.20 0.9933825
494.30 0.9949611
494.40 0.9965387
494.50 0.9981143
494.60 0.9996841
494.70 1.001192
494.80 1.002478
494.90 1.003133
495.00 1.003788
495.10 1.004442
495.20 1.004661
495.30 1.004879
495.40 1.005097
495.50 1.005316
495.60 1.005532
495.70 1.00575
495.80 1.005967
495.90 1.006184
496.00 1.006401
496.10 1.006418
496.20 1.006042
496.30 1.006059
496.40 1.006076
496.50 1.006093
496.60 1.00611
496.70 1.005704
496.80 1.005299
496.90 1.004895
497.00 1.00449
497.10 1.004087
497.20 1.003682
497.30 1.003279
497.40 1.002875
497.50 1.002472
497.60 1.00207
497.70 1.001653
497.80 1.001063
497.90 1.000472
498.00 0.9998824
498.10 0.9992934
498.20 0.9987033
498.30 0.9981153
498.40 0.9975263
498.50 0.9969382
498.60 0.9963511
498.70 0.9950998
498.80 0.9938504
498.90 0.9929898
499.00 0.9921292
499.10 0.9912706
499.20 0.9903025
499.30 0.9890493
499.40 0.9876407
499.50 0.986233
499.60 0.9848254
499.70 0.983366
499.80 0.9811886
499.90 0.9790122
500.00 0.9768378
500.10 0.9746651
500.20 0.9717554
500.30 0.967279
500.40 0.9628059
500.50 0.9583365
500.60 0.9538705
500.70 0.949408
500.80 0.9428374
500.90 0.9317866
501.00 0.9207447
501.10 0.9097114
501.20 0.8865397
501.30 0.8544264
501.40 0.8147124
501.50 0.7195379
501.60 0.7086405
501.70 0.8300723
501.80 0.8787912
501.90 0.9053346
502.00 0.926719
502.10 0.9371734
502.20 0.9472649
502.30 0.9526414
502.40 0.956889
502.50 0.9587439
502.60 0.9605974
502.70 0.9624492
502.80 0.9642995
502.90 0.9661483
503.00 0.9674134
503.10 0.9674408
503.20 0.9674683
503.30 0.9674955
503.40 0.9674157
503.50 0.9670314
503.60 0.9666474
503.70 0.9662636
503.80 0.965769
503.90 0.9644592
504.00 0.9621331
504.10 0.9576474
504.20 0.9531653
504.30 0.9486866
504.40 0.9447363
504.50 0.9422824
504.60 0.9387494
504.70 0.9238743
504.80 0.8950745
504.90 0.9077375
505.00 0.9203946
505.10 0.9287431
505.20 0.9358057
505.30 0.9392234
505.40 0.9426382
505.50 0.9460503
505.60 0.9486425
505.70 0.9494968
505.80 0.9503504
505.90 0.9512032
506.00 0.9520552
506.10 0.9529067
506.20 0.9535102
506.30 0.9534108
506.40 0.9533113
506.50 0.9532118
506.60 0.9531124
506.70 0.9530128
506.80 0.9529134
506.90 0.9528139
507.00 0.9527145
507.10 0.9525267
507.20 0.9521511
507.30 0.9517758
507.40 0.9514007
507.50 0.9510257
507.60 0.950651
507.70 0.9502766
507.80 0.9499024
507.90 0.9495284
508.00 0.9491545
508.10 0.948781
508.20 0.9484076
508.30 0.9480345
508.40 0.9476616
508.50 0.9472889
508.60 0.9469164
508.70 0.9465442
508.80 0.9461721
508.90 0.9455504
509.00 0.9448412
509.10 0.9442189
509.20 0.9437803
509.30 0.943342
509.40 0.9429041
509.50 0.9424664
509.60 0.9420289
509.70 0.9415917
509.80 0.9411548
509.90 0.9407183
510.00 0.9402818
510.10 0.9398457
510.20 0.93941
510.30 0.9389429
510.40 0.9383866
510.50 0.9378306
510.60 0.9372751
510.70 0.9367199
510.80 0.936165
510.90 0.9356106
511.00 0.9350565
511.10 0.9345027
511.20 0.9339494
511.30 0.9333963
511.40 0.9328436
511.50 0.9322913
511.60 0.9317627
511.70 0.9312841
511.80 0.9308057
511.90 0.9303276
512.00 0.9298499
512.10 0.9293724
512.20 0.9288952
512.30 0.9284097
512.40 0.9278999
512.50 0.9273904
512.60 0.9268812
512.70 0.9263723
512.80 0.9258638
512.90 0.9253555
513.00 0.9248477
513.10 0.9243401
513.20 0.9238329
513.30 0.9233259
513.40 0.9228194
513.50 0.9223132
513.60 0.9218072
513.70 0.9213016
513.80 0.9207963
513.90 0.9202913
514.00 0.9197787
514.10 0.919265
514.20 0.9187518
514.30 0.9182388
514.40 0.9177262
514.50 0.9172139
514.60 0.9167019
514.70 0.9161902
514.80 0.915679
514.90 0.915168
515.00 0.9146573
515.10 0.9141469
515.20 0.9136369
515.30 0.9131273
515.40 0.9126179
515.50 0.9121088
515.60 0.9116002
515.70 0.9110917
515.80 0.9105837
515.90 0.910076
516.00 0.9095687
516.10 0.9090616
516.20 0.9085548
516.30 0.9080484
516.40 0.9075422
516.50 0.9070365
516.60 0.906531
516.70 0.9060258
516.80 0.9055209
516.90 0.9050163
517.00 0.9045122
517.10 0.9040082
517.20 0.9035046
517.30 0.9030014
517.40 0.9024984
517.50 0.9019958
517.60 0.9014935
517.70 0.9009915
517.80 0.9004899
517.90 0.8999886
518.00 0.8994876
518.10 0.8989869
518.20 0.8984865
518.30 0.8979865
518.40 0.8974867
518.50 0.8969873
518.60 0.8964882
518.70 0.8959894
518.80 0.895491
518.90 0.8949928
519.00 0.894495
519.10 0.8939911
519.20 0.8934803
519.30 0.8929699
519.40 0.8924598
519.50 0.89195
519.60 0.8914406
519.70 0.8909315
519.80 0.8904226
519.90 0.8899142
520.00 0.889406
520.10 0.8888982
520.20 0.8883907
520.30 0.8878835
520.40 0.8873767
520.50 0.8868702
520.60 0.886364
520.70 0.8858581
520.80 0.8853526
520.90 0.8848472
521.00 0.8843424
521.10 0.8838378
521.20 0.8833335
521.30 0.8828296
521.40 0.8823259
521.50 0.8818227
521.60 0.8813197
521.70 0.880817
521.80 0.8803146
521.90 0.8798126
522.00 0.8793109
522.10 0.8788096
522.20 0.8783085
522.30 0.8778078
522.40 0.8773073
522.50 0.8768073
522.60 0.8763074
522.70 0.875808
522.80 0.8753088
522.90 0.87481
523.00 0.8743115
523.10 0.8738133
523.20 0.8733154
523.30 0.8728179
523.40 0.8723206
523.50 0.8718236
523.60 0.871327
523.70 0.8708308
523.80 0.8703347
523.90 0.8698391
524.00 0.8693437
524.10 0.8688487
524.20 0.868354
524.30 0.8678687
524.40 0.8673908
524.50 0.8669134
524.60 0.8664362
524.70 0.8659592
524.80 0.8654826
524.90 0.8650063
525.00 0.8645303
525.10 0.8640546
525.20 0.8635791
525.30 0.863104
525.40 0.8626292
525.50 0.8621546
525.60 0.8616805
525.70 0.8612065
525.80 0.8607328
525.90 0.8602595
526.00 0.8597865
526.10 0.8593138
526.20 0.8588413
526.30 0.8583692
526.40 0.8578974
526.50 0.8574257
526.60 0.8569545
526.70 0.8564836
526.80 0.8560129
526.90 0.8555426
527.00 0.8550724
527.10 0.8546027
527.20 0.8541332
527.30 0.853664
527.40 0.8531951
527.50 0.8527266
527.60 0.8522583
527.70 0.8517903
527.80 0.8513226
527.90 0.8508551
528.00 0.850388
528.10 0.8499212
528.20 0.8494546
528.30 0.8489883
528.40 0.8485223
528.50 0.8480567
528.60 0.8475913
528.70 0.8471263
528.80 0.8466615
528.90 0.846197
529.00 0.8457328
529.10 0.8452688
529.20 0.8448052
529.30 0.8443419
529.40 0.8438789
529.50 0.8434122
529.60 0.8429227
529.70 0.8424335
529.80 0.8419447
529.90 0.8414561
530.00 0.8409678
530.10 0.8404798
530.20 0.8399922
530.30 0.8395049
530.40 0.8390178
530.50 0.8385311
530.60 0.8380447
530.70 0.8375585
530.80 0.8370727
530.90 0.8365872
531.00 0.8361021
531.10 0.8356171
531.20 0.8351325
531.30 0.8346483
531.40 0.8341643
531.50 0.8336807
531.60 0.8331972
531.70 0.8327142
531.80 0.8322314
531.90 0.831749
532.00 0.8312669
532.10 0.830785
532.20 0.8303221
532.30 0.8298689
532.40 0.8294162
532.50 0.8289637
532.60 0.8285114
532.70 0.8280595
532.80 0.8276078
532.90 0.8271565
533.00 0.8267053
533.10 0.8262545
533.20 0.8258039
533.30 0.8253536
533.40 0.8249037
533.50 0.8244539
533.60 0.8240045
533.70 0.8235554
533.80 0.8231065
533.90 0.8226578
534.00 0.8222096
534.10 0.8217615
534.20 0.8213137
534.30 0.8208662
534.40 0.820419
534.50 0.8199721
534.60 0.8195255
534.70 0.8190791
534.80 0.8186306
534.90 0.8181724
535.00 0.8177144
535.10 0.8172567
535.20 0.8167993
535.30 0.8163422
535.40 0.8158854
535.50 0.8154288
535.60 0.8149726
535.70 0.8145167
535.80 0.814061
535.90 0.8136056
536.00 0.8131504
536.10 0.8126956
536.20 0.812241
536.30 0.8117867
536.40 0.8113328
536.50 0.810879
536.60 0.8104256
536.70 0.8099724
536.80 0.8095196
536.90 0.809067
537.00 0.8086147
537.10 0.8081627
537.20 0.8077109
537.30 0.8072594
537.40 0.8068083
537.50 0.8063574
537.60 0.8059068
537.70 0.8054564
537.80 0.8050064
537.90 0.8045566
538.00 0.8041071
538.10 0.8036578
538.20 0.8032089
538.30 0.8027602
538.40 0.8023119
538.50 0.8018638
538.60 0.8014159
538.70 0.8009683
538.80 0.800521
538.90 0.800074
539.00 0.7996273
539.10 0.7991809
539.20 0.7987347
539.30 0.7982888
539.40 0.7978431
539.50 0.7973978
539.60 0.7969527
539.70 0.796508
539.80 0.7960634
539.90 0.7956192
540.00 0.7951752
540.10 0.7947315
540.20 0.7942891
540.30 0.7938474
540.40 0.793406
540.50 0.7929649
540.60 0.7925239
540.70 0.7920834
540.80 0.791643
540.90 0.791203
541.00 0.7907632
541.10 0.7903237
541.20 0.7898844
541.30 0.7894454
541.40 0.7890067
541.50 0.7885683
541.60 0.7881301
541.70 0.7876923
541.80 0.7872546
541.90 0.7868173
542.00 0.7863802
542.10 0.7859434
542.20 0.7855068
542.30 0.7850706
542.40 0.7846345
542.50 0.7841988
542.60 0.7837633
542.70 0.7833281
542.80 0.7828932
542.90 0.7824585
543.00 0.7820241
543.10 0.7815899
543.20 0.7811561
543.30 0.7807225
543.40 0.7802892
543.50 0.779856
543.60 0.7794233
543.70 0.7789907
543.80 0.7785584
543.90 0.7781264
544.00 0.7776947
544.10 0.7772632
544.20 0.7768319
544.30 0.776401
544.40 0.7759704
544.50 0.7755399
544.60 0.7751098
544.70 0.7746799
544.80 0.7742502
544.90 0.7738208
545.00 0.7733917
545.10 0.7729629
545.20 0.7725343
545.30 0.772106
545.40 0.7716779
545.50 0.7712501
545.60 0.7708328
545.70 0.77042
545.80 0.7700074
545.90 0.7695951
546.00 0.7691831
546.10 0.7687714
546.20 0.7683598
546.30 0.7679485
546.40 0.7675374
546.50 0.7671267
546.60 0.7667161
546.70 0.7663058
546.80 0.7658958
546.90 0.7654861
547.00 0.7650765
547.10 0.7646672
547.20 0.7642582
547.30 0.7638494
547.40 0.7634408
547.50 0.7630324
547.60 0.7626244
547.70 0.7622166
547.80 0.761809
547.90 0.7614017
548.00 0.7609947
548.10 0.7605879
548.20 0.7601812
548.30 0.759764
548.40 0.7593322
548.50 0.7589005
548.60 0.758469
548.70 0.7580379
548.80 0.757607
548.90 0.7571764
549.00 0.756746
549.10 0.756316
549.20 0.7558861
549.30 0.7554566
549.40 0.7550272
549.50 0.7545982
549.60 0.7541694
549.70 0.7537408
549.80 0.7533126
549.90 0.7528847
550.00 0.7524569
550.10 0.7520294
550.20 0.7516023
550.30 0.7511753
550.40 0.7507486
550.50 0.7503221
550.60 0.749896
550.70 0.7494701
550.80 0.7490444
550.90 0.748619
551.00 0.748198
551.10 0.7477999
551.20 0.7474021
551.30 0.7470046
551.40 0.7466073
551.50 0.7462103
551.60 0.7458134
551.70 0.7454168
551.80 0.7450205
551.90 0.7446244
552.00 0.7442286
552.10 0.743833
552.20 0.7434376
552.30 0.7430424
552.40 0.7426475
552.50 0.7422528
552.60 0.7418584
552.70 0.7414641
552.80 0.7410702
552.90 0.7406765
553.00 0.740283
553.10 0.7398898
553.20 0.7394967
553.30 0.7391039
553.40 0.7387114
553.50 0.7383191
553.60 0.737927
553.70 0.7375351
553.80 0.7371286
553.90 0.7367121
554.00 0.7362959
554.10 0.7358801
554.20 0.7354644
554.30 0.735049
554.40 0.7346338
554.50 0.7342189
554.60 0.7338043
554.70 0.7333899
554.80 0.7329757
554.90 0.7325618
555.00 0.7321481
555.10 0.7317347
555.20 0.7313216
555.30 0.7309087
555.40 0.7304961
555.50 0.7300837
555.60 0.7296716
555.70 0.7292596
555.80 0.728848
555.90 0.7284366
556.00 0.7280255
556.10 0.7276145
556.20 0.7272039
556.30 0.7267935
556.40 0.7263833
556.50 0.7259741
556.60 0.7255782
556.70 0.7251825
556.80 0.7247871
556.90 0.7243919
557.00 0.7239969
557.10 0.7236022
557.20 0.7232077
557.30 0.7228135
557.40 0.7224194
557.50 0.7220257
557.60 0.7216321
557.70 0.7212388
557.80 0.7208457
557.90 0.720453
558.00 0.7200604
558.10 0.719668
558.20 0.7192759
558.30 0.718884
558.40 0.7184922
558.50 0.7181008
558.60 0.7177096
558.70 0.7173187
558.80 0.7169279
558.90 0.7165375
559.00 0.7161472
559.10 0.7157572
559.20 0.7153674
559.30 0.7149779
559.40 0.7145885
559.50 0.7141994
559.60 0.7138106
559.70 0.713422
559.80 0.7130336
559.90 0.7126454
560.00 0.7122575
560.10 0.7118698
560.20 0.7114823
560.30 0.711095
560.40 0.710708
560.50 0.7103213
560.60 0.7099347
560.70 0.7095484
560.80 0.7091623
560.90 0.7087764
561.00 0.7083909
561.10 0.7080054
561.20 0.7076202
561.30 0.7072354
561.40 0.7068506
561.50 0.7064661
561.60 0.7060819
561.70 0.7056979
561.80 0.7053141
561.90 0.7049305
562.00 0.7045472
562.10 0.7041694
562.20 0.7037997
562.30 0.7034304
562.40 0.7030611
562.50 0.7026922
562.60 0.7023234
562.70 0.701955
562.80 0.7015866
562.90 0.7012185
563.00 0.7008507
563.10 0.700483
563.20 0.7001155
563.30 0.6997483
563.40 0.6993813
563.50 0.6990145
563.60 0.6986479
563.70 0.6982816
563.80 0.6979154
563.90 0.6975494
564.00 0.6971837
564.10 0.6968183
564.20 0.6964529
564.30 0.6960879
564.40 0.695723
564.50 0.6953584
564.60 0.6949939
564.70 0.6946298
564.80 0.6942658
564.90 0.6938951
565.00 0.6935079
565.10 0.6931209
565.20 0.6927342
565.30 0.6923477
565.40 0.6919613
565.50 0.6915753
565.60 0.6911894
565.70 0.6908039
565.80 0.6904185
565.90 0.6900333
566.00 0.6896485
566.10 0.6892638
566.20 0.6888793
566.30 0.6884951
566.40 0.6881111
566.50 0.6877273
566.60 0.6873438
566.70 0.6869605
566.80 0.6865774
566.90 0.6861946
567.00 0.6858119
567.10 0.6854295
567.20 0.6850473
567.30 0.6846653
567.40 0.6842837
567.50 0.6839021
567.60 0.6835209
567.70 0.6831379
567.80 0.6827469
567.90 0.6823562
568.00 0.6819656
568.10 0.6815754
568.20 0.6811853
568.30 0.6807956
568.40 0.6804059
568.50 0.6800167
568.60 0.6796275
568.70 0.6792386
568.80 0.6788499
568.90 0.6784615
569.00 0.6780733
569.10 0.6776853
569.20 0.6772976
569.30 0.6769101
569.40 0.6765229
569.50 0.6761359
569.60 0.675749
569.70 0.6753624
569.80 0.6749761
569.90 0.67459
570.00 0.6742041
570.10 0.6738184
570.20 0.673433
570.30 0.6730478
570.40 0.6726628
570.50 0.672278
570.60 0.6718936
570.70 0.6715093
570.80 0.6711252
570.90 0.6707414
571.00 0.6703578
571.10 0.6699744
571.20 0.6695913
571.30 0.6692083
571.40 0.6688256
571.50 0.6684432
571.60 0.6680609
571.70 0.6676789
571.80 0.6672971
571.90 0.6669155
572.00 0.6665342
572.10 0.6661531
572.20 0.6657722
572.30 0.6653915
572.40 0.6650111
572.50 0.6646309
572.60 0.6642509
572.70 0.6638712
572.80 0.6634916
572.90 0.6631123
573.00 0.6627332
573.10 0.6623544
573.20 0.6619757
573.30 0.6615973
573.40 0.6612167
573.50 0.660833
573.60 0.6604496
573.70 0.6600663
573.80 0.6596834
573.90 0.6593006
574.00 0.658918
574.10 0.6585357
574.20 0.6581537
574.30 0.6577718
574.40 0.6573902
574.50 0.6570087
574.60 0.6566275
574.70 0.6562466
574.80 0.6558658
574.90 0.6554853
575.00 0.655105
575.10 0.654725
575.20 0.6543452
575.30 0.6539656
575.40 0.6535862
575.50 0.6532069
575.60 0.652828
575.70 0.6524493
575.80 0.6520708
575.90 0.6516926
576.00 0.6513145
576.10 0.6509367
576.20 0.650559
576.30 0.6501817
576.40 0.6498045
576.50 0.6494277
576.60 0.6490509
576.70 0.6486744
576.80 0.6482981
576.90 0.6479222
577.00 0.6475463
577.10 0.6471707
577.20 0.6467953
577.30 0.6464202
577.40 0.6460453
577.50 0.6456705
577.60 0.6452745
577.70 0.6448438
577.80 0.6444132
577.90 0.6439829
578.00 0.6435529
578.10 0.6431231
578.20 0.6426935
578.30 0.6422643
578.40 0.6418353
578.50 0.6414066
578.60 0.640978
578.70 0.6405498
578.80 0.6401218
578.90 0.6396942
579.00 0.6392667
579.10 0.6388405
579.20 0.638425
579.30 0.6380097
579.40 0.6375946
579.50 0.6371798
579.60 0.6367653
579.70 0.6363509
579.80 0.6359368
579.90 0.6355231
580.00 0.6351096
580.10 0.6346494
580.20 0.634113
580.30 0.633577
580.40 0.6330413
580.50 0.632506
580.60 0.631971
580.70 0.6314363
580.80 0.6309019
580.90 0.6303679
581.00 0.6298342
581.10 0.6293008
581.20 0.6287678
581.30 0.6282351
581.40 0.6277027
581.50 0.6271707
581.60 0.626639
581.70 0.6261076
581.80 0.6255765
581.90 0.6250458
582.00 0.6245154
582.10 0.6239105
582.20 0.623184
582.30 0.622458
582.40 0.6217326
582.50 0.6210074
582.60 0.6202828
582.70 0.6195587
582.80 0.618835
582.90 0.6181117
583.00 0.6173889
583.10 0.6166667
583.20 0.6159448
583.30 0.6152234
583.40 0.6145025
583.50 0.613782
583.60 0.6128888
583.70 0.6117138
583.80 0.6105396
583.90 0.6093662
584.00 0.6081935
584.10 0.6070216
584.20 0.6058503
584.30 0.60468
584.40 0.6035103
584.50 0.6023415
584.60 0.6011734
584.70 0.6000061
584.80 0.5988395
584.90 0.5975801
585.00 0.5958956
585.10 0.5942122
585.20 0.5921782
585.30 0.5895719
585.40 0.5869674
585.50 0.5843646
585.60 0.5817636
585.70 0.5791643
585.80 0.5765667
585.90 0.5739709
586.00 0.5713769
586.10 0.5687845
586.20 0.5651498
586.30 0.5598144
586.40 0.5544827
586.50 0.5491547
586.60 0.5438301
586.70 0.5385093
586.80 0.5310951
586.90 0.520266
587.00 0.5094441
587.10 0.4986296
587.20 0.483722
587.30 0.4621364
587.40 0.4364038
587.50 0.3898208
587.60 0.3629823
587.70 0.4173677
587.80 0.4512998
587.90 0.4745755
588.00 0.4931351
588.10 0.5040159
588.20 0.5148894
588.30 0.5257554
588.40 0.5343368
588.50 0.5391983
588.60 0.5440564
588.70 0.5489112
588.80 0.5537627
588.90 0.5586108
589.00 0.5623541
589.10 0.5642983
589.20 0.5662412
589.30 0.5681827
589.40 0.5701229
589.50 0.5720617
589.60 0.5739992
589.70 0.5759353
589.80 0.57787
589.90 0.5798034
590.00 0.5812933
590.10 0.5820608
590.20 0.5828277
590.30 0.5835942
590.40 0.5843601
590.50 0.5851254
590.60 0.5858901
590.70 0.5866543
590.80 0.5871267
590.90 0.5874679
591.00 0.5878089
591.10 0.5881496
591.20 0.5884901
591.30 0.5888302
591.40 0.5891701
591.50 0.5895097
591.60 0.5897317
591.70 0.5897622
591.80 0.5897926
591.90 0.589823
592.00 0.5898533
592.10 0.5898835
592.20 0.5899137
592.30 0.5899438
592.40 0.5899739
592.50 0.590004
592.60 0.590034
592.70 0.5900639
592.80 0.5900938
592.90 0.5901235
593.00 0.5901533
593.10 0.5901133
593.20 0.5899594
593.30 0.5898057
593.40 0.589652
593.50 0.5894984
593.60 0.5893449
593.70 0.5891913
593.80 0.589038
593.90 0.5888846
594.00 0.5887314
594.10 0.5885782
594.20 0.5884251
594.30 0.588272
594.40 0.5881191
594.50 0.5879661
594.60 0.5878133
594.70 0.5876605
594.80 0.5875079
594.90 0.5873552
595.00 0.5872026
595.10 0.5870216
595.20 0.586794
595.30 0.5865666
595.40 0.5863392
595.50 0.586112
595.60 0.5858849
595.70 0.5856579
595.80 0.5854311
595.90 0.5852044
596.00 0.5849778
596.10 0.5847512
596.20 0.5845249
596.30 0.5842987
596.40 0.5840725
596.50 0.5838465
596.60 0.5836205
596.70 0.5833776
596.80 0.5831242
596.90 0.5828709
597.00 0.5826178
597.10 0.5823649
597.20 0.582112
597.30 0.5818593
597.40 0.5816068
597.50 0.5813544
597.60 0.5810981
597.70 0.5808355
597.80 0.580573
597.90 0.5803106
598.00 0.5800484
598.10 0.5797865
598.20 0.5795245
598.30 0.5792628
598.40 0.5790011
598.50 0.5787397
598.60 0.5784783
598.70 0.5782171
598.80 0.5779561
598.90 0.5776951
599.00 0.5774344
599.10 0.5771737
599.20 0.5769133
599.30 0.576653
599.40 0.576375
599.50 0.5760974
599.60 0.5758199
599.70 0.5755425
599.80 0.5752653
599.90 0.5749882
600.00 0.5747113
600.10 0.5744346
600.20 0.5741579
600.30 0.5738815
600.40 0.5736051
600.50 0.573329
600.60 0.573053
600.70 0.5727772
600.80 0.5725015
600.90 0.5722259
601.00 0.5719505
601.10 0.5716753
601.20 0.5714002
601.30 0.5711252
601.40 0.5708457
601.50 0.5705662
601.60 0.5702868
601.70 0.5700076
601.80 0.5697286
601.90 0.5694498
602.00 0.5691711
602.10 0.5688926
602.20 0.5686142
602.30 0.568336
602.40 0.5680579
602.50 0.5677799
602.60 0.5675021
602.70 0.5671958
602.80 0.5668881
602.90 0.5666054
603.00 0.5663229
603.10 0.5660406
603.20 0.5657583
603.30 0.5654763
603.40 0.5651944
603.50 0.5649126
603.60 0.564631
603.70 0.5643496
603.80 0.5640684
603.90 0.5637872
604.00 0.5635062
604.10 0.5632254
604.20 0.5629448
604.30 0.5626642
604.40 0.5623839
604.50 0.5620878
604.60 0.5617918
604.70 0.561496
604.80 0.5612004
604.90 0.560905
605.00 0.5606097
605.10 0.5603145
605.20 0.5600195
605.30 0.5597247
605.40 0.55943
605.50 0.5591009
605.60 0.558772
605.70 0.5584432
605.80 0.5581146
605.90 0.5577863
606.00 0.5574581
606.10 0.5569428
606.20 0.5564278
606.30 0.5559131
606.40 0.5553987
606.50 0.554007
606.60 0.5526161
606.70 0.5488393
606.80 0.5471635
606.90 0.5483339
607.00 0.5494173
607.10 0.5499256
607.20 0.5504336
607.30 0.550525
607.40 0.5506162
607.50 0.5507075
607.60 0.5507986
607.70 0.5506746
607.80 0.5505508
607.90 0.550427
608.00 0.5503032
608.10 0.5501795
608.20 0.5500558
608.30 0.5498617
608.40 0.5496677
608.50 0.5494738
608.60 0.5492799
608.70 0.5490607
608.80 0.5488302
608.90 0.5485997
609.00 0.5483694
609.10 0.5481393
609.20 0.5479092
609.30 0.5476581
609.40 0.5474071
609.50 0.5471563
609.60 0.5469055
609.70 0.5466549
609.80 0.5464045
609.90 0.5461542
610.00 0.5459041
610.10 0.545654
610.20 0.5454041
610.30 0.5451543
610.40 0.5449047
610.50 0.5446552
610.60 0.5444059
610.70 0.5441566
610.80 0.5439075
610.90 0.5436463
611.00 0.5433852
611.10 0.5431242
611.20 0.5428634
611.30 0.5426026
611.40 0.5423421
611.50 0.5420817
611.60 0.5418215
611.70 0.5415613
611.80 0.5413014
611.90 0.5410415
612.00 0.5407818
612.10 0.5405223
612.20 0.5402628
612.30 0.5400036
612.40 0.5397341
612.50 0.5394647
612.60 0.5391955
612.70 0.5389265
612.80 0.5386577
612.90 0.5383888
613.00 0.5381203
613.10 0.5378518
613.20 0.5375835
613.30 0.5373153
613.40 0.5370474
613.50 0.5367795
613.60 0.5365118
613.70 0.5362442
613.80 0.5359767
613.90 0.5357095
614.00 0.5354423
614.10 0.5351753
614.20 0.5349085
614.30 0.5346418
614.40 0.534387
614.50 0.5341325
614.60 0.533878
614.70 0.5336237
614.80 0.5333583
614.90 0.5330908
615.00 0.5328234
615.10 0.5325561
615.20 0.532289
615.30 0.532022
615.40 0.5317552
615.50 0.5314886
615.60 0.5312221
615.70 0.5309557
615.80 0.5306894
615.90 0.5304233
616.00 0.5301574
616.10 0.5298915
616.20 0.5296259
616.30 0.5293604
616.40 0.529095
616.50 0.5288298
616.60 0.5285647
616.70 0.5282998
616.80 0.5280351
616.90 0.527768
617.00 0.5275012
617.10 0.5272344
617.20 0.526968
617.30 0.5267015
617.40 0.5264352
617.50 0.5261691
617.60 0.5259031
617.70 0.5256373
617.80 0.5253716
617.90 0.5251061
618.00 0.5248407
618.10 0.5245754
618.20 0.5243103
618.30 0.5240454
618.40 0.5237805
618.50 0.5235158
618.60 0.5232513
618.70 0.5229869
618.80 0.5227226
618.90 0.5224586
619.00 0.5221945
619.10 0.5219308
619.20 0.521667
619.30 0.5214035
619.40 0.5211401
619.50 0.5208769
619.60 0.5206138
619.70 0.5203509
619.80 0.520088
619.90 0.5198253
620.00 0.5195628
620.10 0.5193005
620.20 0.5190382
620.30 0.5187761
620.40 0.5185141
620.50 0.5182523
620.60 0.5179906
620.70 0.517729
620.80 0.5174676
620.90 0.5172064
621.00 0.5169452
621.10 0.5166842
621.20 0.5164233
621.30 0.5161626
621.40 0.5159019
621.50 0.5156415
621.60 0.5153812
621.70 0.5151211
621.80 0.514861
621.90 0.5146011
622.00 0.5143413
622.10 0.5140817
622.20 0.5138223
622.30 0.5135629
622.40 0.5133037
622.50 0.5130447
622.60 0.5127857
622.70 0.512527
622.80 0.5122684
622.90 0.5120098
623.00 0.5117516
623.10 0.5114933
623.20 0.5112352
623.30 0.5109773
623.40 0.5107195
623.50 0.5104618
623.60 0.5102043
623.70 0.5099469
623.80 0.5096897
623.90 0.5094326
624.00 0.5091756
624.10 0.5089188
624.20 0.5086621
624.30 0.5084056
624.40 0.5081492
624.50 0.5078928
624.60 0.5076367
624.70 0.5073808
624.80 0.507125
624.90 0.5068692
625.00 0.5066136
625.10 0.5063581
625.20 0.5061029
625.30 0.5058476
625.40 0.5055927
625.50 0.5053377
625.60 0.505083
625.70 0.5048284
625.80 0.5045738
625.90 0.5043196
626.00 0.5040653
626.10 0.5038112
626.20 0.5035574
626.30 0.5033036
626.40 0.5030499
626.50 0.5027963
626.60 0.5025429
626.70 0.5022897
626.80 0.5020366
626.90 0.5017836
627.00 0.5015307
627.10 0.5012785
627.20 0.5010276
627.30 0.500777
627.40 0.5005264
627.50 0.5002761
627.60 0.5000258
627.70 0.4997756
627.80 0.4995256
627.90 0.4992758
628.00 0.499026
628.10 0.4987764
628.20 0.4985269
628.30 0.4982775
628.40 0.4980284
628.50 0.4977793
628.60 0.4975304
628.70 0.4972816
628.80 0.4970329
628.90 0.4967843
629.00 0.4965359
629.10 0.4962876
629.20 0.4960395
629.30 0.4957915
629.40 0.4955436
629.50 0.4952958
629.60 0.4950482
629.70 0.4948008
629.80 0.4945533
629.90 0.4943062
630.00 0.4940591
630.10 0.4938121
630.20 0.4935653
630.30 0.4933171
630.40 0.4930688
630.50 0.4928207
630.60 0.4925728
630.70 0.492325
630.80 0.4920773
630.90 0.4918297
631.00 0.4915823
631.10 0.491335
631.20 0.4910878
631.30 0.4908408
631.40 0.4905938
631.50 0.4903471
631.60 0.4901004
631.70 0.489854
631.80 0.4896075
631.90 0.4893613
632.00 0.4891152
632.10 0.4888692
632.20 0.4886234
632.30 0.4883776
632.40 0.488132
632.50 0.4878866
632.60 0.4876412
632.70 0.4873961
632.80 0.487151
632.90 0.4869061
633.00 0.4866613
633.10 0.4864166
633.20 0.486172
633.30 0.4859276
633.40 0.4856838
633.50 0.4854405
633.60 0.4851973
633.70 0.4849543
633.80 0.4847114
633.90 0.4844686
634.00 0.4842259
634.10 0.4839835
634.20 0.483741
634.30 0.4834988
634.40 0.4832566
634.50 0.4830146
634.60 0.4827728
634.70 0.482531
634.80 0.4822893
634.90 0.4820479
635.00 0.4818065
635.10 0.4815653
635.20 0.4813242
635.30 0.4810832
635.40 0.4808424
635.50 0.4806017
635.60 0.4803611
635.70 0.4801206
635.80 0.4798803
635.90 0.47964
636.00 0.4794
636.10 0.4791599
636.20 0.4789201
636.30 0.4786804
636.40 0.4784408
636.50 0.4782014
636.60 0.4779651
636.70 0.4777292
636.80 0.4774935
636.90 0.4772578
637.00 0.4770223
637.10 0.4767869
637.20 0.4765517
637.30 0.4763166
637.40 0.4760815
637.50 0.4758467
637.60 0.4756119
637.70 0.4753773
637.80 0.4751428
637.90 0.4749084
638.00 0.4746741
638.10 0.47444
638.20 0.474206
638.30 0.4739721
638.40 0.4737383
638.50 0.4735047
638.60 0.4732712
638.70 0.4730378
638.80 0.4728045
638.90 0.4725714
639.00 0.4723383
639.10 0.4721054
639.20 0.4718726
639.30 0.47164
639.40 0.4714075
639.50 0.471175
639.60 0.4709427
639.70 0.4707096
639.80 0.4704736
639.90 0.4702377
640.00 0.4700019
640.10 0.4697662
640.20 0.4695307
640.30 0.4692953
640.40 0.4690599
640.50 0.4688247
640.60 0.4685897
640.70 0.4683548
640.80 0.4681199
640.90 0.4678853
641.00 0.4676506
641.10 0.4674162
641.20 0.467182
641.30 0.4669477
641.40 0.4667137
641.50 0.4664797
641.60 0.466246
641.70 0.4660122
641.80 0.4657786
641.90 0.4655452
642.00 0.4653119
642.10 0.4650786
642.20 0.4648456
642.30 0.4646126
642.40 0.4643798
642.50 0.464147
642.60 0.4639144
642.70 0.463682
642.80 0.4634497
642.90 0.4632175
643.00 0.4629853
643.10 0.4627533
643.20 0.4625214
643.30 0.4622897
643.40 0.462058
643.50 0.4618264
643.60 0.461595
643.70 0.4613638
643.80 0.4611326
643.90 0.4609016
644.00 0.4606707
644.10 0.4604398
644.20 0.4602092
644.30 0.4599787
644.40 0.4597482
644.50 0.4595179
644.60 0.4592877
644.70 0.4590576
644.80 0.4588277
644.90 0.4585979
645.00 0.4583681
645.10 0.4581386
645.20 0.4579091
645.30 0.4576798
645.40 0.4574505
645.50 0.4572214
645.60 0.4569925
645.70 0.4567636
645.80 0.4565348
645.90 0.4563062
646.00 0.4560777
646.10 0.4558491
646.20 0.4556201
646.30 0.4553913
646.40 0.4551626
646.50 0.454934
646.60 0.4547054
646.70 0.4544771
646.80 0.4542488
646.90 0.4540206
647.00 0.4537926
647.10 0.4535647
647.20 0.4533369
647.30 0.4531093
647.40 0.4528817
647.50 0.4526543
647.60 0.452427
647.70 0.4521999
647.80 0.4519728
647.90 0.4517459
648.00 0.4515191
648.10 0.4512923
648.20 0.4510657
648.30 0.4508393
648.40 0.4506129
648.50 0.4503867
648.60 0.4501606
648.70 0.4499345
648.80 0.4497087
648.90 0.4494829
649.00 0.4492573
649.10 0.4490317
649.20 0.4488063
649.30 0.448581
649.40 0.4483544
649.50 0.4481278
649.60 0.4479013
649.70 0.447675
649.80 0.4474488
649.90 0.4472226
650.00 0.4469967
650.10 0.4467707
650.20 0.446545
650.30 0.4463193
650.40 0.4460939
650.50 0.4458684
650.60 0.4456432
650.70 0.445418
650.80 0.445193
650.90 0.444968
651.00 0.4447432
651.10 0.4445184
651.20 0.4442939
651.30 0.4440694
651.40 0.4438451
651.50 0.4436208
651.60 0.4433967
651.70 0.4431728
651.80 0.4429489
651.90 0.4427251
652.00 0.4425014
652.10 0.4422779
652.20 0.4420545
652.30 0.4418312
652.40 0.441608
652.50 0.4413849
652.60 0.4411587
652.70 0.4409309
652.80 0.4407032
652.90 0.4404756
653.00 0.4402482
653.10 0.4400209
653.20 0.4397937
653.30 0.4395666
653.40 0.4393395
653.50 0.4391127
653.60 0.438886
653.70 0.4386594
653.80 0.4384328
653.90 0.4382065
654.00 0.4379802
654.10 0.437754
654.20 0.437528
654.30 0.4373022
654.40 0.4370763
654.50 0.4368507
654.60 0.4366251
654.70 0.4363997
654.80 0.4361743
654.90 0.4359491
655.00 0.4357241
655.10 0.435499
655.20 0.4352742
655.30 0.4350495
655.40 0.4348248
655.50 0.4346003
655.60 0.4343759
655.70 0.4341517
655.80 0.4339134
655.90 0.4336754
656.00 0.4334374
656.10 0.4331995
656.20 0.4329618
656.30 0.4327242
656.40 0.4324867
656.50 0.4322494
656.60 0.4320121
656.70 0.431775
656.80 0.431538
656.90 0.4313011
657.00 0.4310645
657.10 0.4308279
657.20 0.4305914
657.30 0.430355
657.40 0.4301188
657.50 0.4298827
657.60 0.4296467
657.70 0.4294108
657.80 0.4291952
657.90 0.428945
658.00 0.428689
658.10 0.4284332
658.20 0.4281773
658.30 0.4279217
658.40 0.4276661
658.50 0.4274108
658.60 0.4271555
658.70 0.4269005
658.80 0.4266455
658.90 0.4263907
659.00 0.426136
659.10 0.4258898
659.20 0.4256562
659.30 0.4253742
659.40 0.4250924
659.50 0.4248106
659.60 0.4245291
659.70 0.4242477
659.80 0.4239665
659.90 0.4236854
660.00 0.4234045
660.10 0.4231236
660.20 0.422843
660.30 0.4225626
660.40 0.4222501
660.50 0.4219321
660.60 0.4216143
660.70 0.4212968
660.80 0.4209793
660.90 0.4205757
661.00 0.4201722
661.10 0.419769
661.20 0.419366
661.30 0.4189633
661.40 0.4185607
661.50 0.4181584
661.60 0.4177563
661.70 0.4173544
661.80 0.4169529
661.90 0.4163764
662.00 0.4158005
662.10 0.4152247
662.20 0.4146494
662.30 0.4140743
662.40 0.4133993
662.50 0.4124184
662.60 0.411438
662.70 0.4104583
662.80 0.409479
662.90 0.4081029
663.00 0.4067275
663.10 0.4055697
663.20 0.4073727
663.30 0.4106423
663.40 0.4122021
663.50 0.412655
663.60 0.4131074
663.70 0.4130724
663.80 0.4130373
663.90 0.4128601
664.00 0.4126579
664.10 0.4122936
664.20 0.4119296
664.30 0.4115657
664.40 0.411202
664.50 0.4108385
664.60 0.4104753
664.70 0.409899
664.80 0.4093232
664.90 0.4087476
665.00 0.4081725
665.10 0.4075975
665.20 0.407023
665.30 0.4064487
665.40 0.4058748
665.50 0.4051361
665.60 0.4043686
665.70 0.4033073
665.80 0.4020485
665.90 0.4007904
666.00 0.399533
666.10 0.3982764
666.20 0.3970206
666.30 0.3957654
666.40 0.394511
666.50 0.3919876
666.60 0.3892416
666.70 0.3864974
666.80 0.3837547
666.90 0.3810137
667.00 0.3782743
667.10 0.373527
667.20 0.3684279
667.30 0.3604673
667.40 0.3525115
667.50 0.3383455
667.60 0.3230914
667.70 0.2972523
667.80 0.2668524
667.90 0.2807369
668.00 0.3098723
668.10 0.3259376
668.20 0.340681
668.30 0.3483143
668.40 0.3546902
668.50 0.3610623
668.60 0.3674306
668.70 0.3715112
668.80 0.3738907
668.90 0.3762688
669.00 0.3786454
669.10 0.3810206
669.20 0.3833944
669.30 0.3845566
669.40 0.3855048
669.50 0.3864524
669.60 0.3873993
669.70 0.3883457
669.80 0.3892915
669.90 0.3902367
670.00 0.3911813
670.10 0.3921255
670.20 0.3930689
670.30 0.3935483
670.40 0.3939457
670.50 0.3943428
670.60 0.3947396
670.70 0.3951362
670.80 0.3952758
670.90 0.3954153
671.00 0.3955546
671.10 0.3956939
671.20 0.3958331
671.30 0.3959722
671.40 0.3961112
671.50 0.3962502
671.60 0.396389
671.70 0.3965276
671.80 0.3966662
671.90 0.396692
672.00 0.3966977
672.10 0.3967035
672.20 0.3967094
672.30 0.396715
672.40 0.3966789
672.50 0.3966395
672.60 0.3966003
672.70 0.3965609
672.80 0.3965216
672.90 0.3964823
673.00 0.396443
673.10 0.3964037
673.20 0.3963643
673.30 0.3962466
673.40 0.396127
673.50 0.396007
673.60 0.3958872
673.70 0.3957673
673.80 0.3956475
673.90 0.3955278
674.00 0.395408
674.10 0.3952885
674.20 0.3951689
674.30 0.3950493
674.40 0.3949299
674.50 0.3948104
674.60 0.394691
674.70 0.3945718
674.80 0.3944525
674.90 0.3943333
675.00 0.3942141
675.10 0.3940951
675.20 0.393976
675.30 0.393857
675.40 0.3937037
675.50 0.3935445
675.60 0.3933853
675.70 0.3932263
675.80 0.3930672
675.90 0.3929083
676.00 0.3927495
676.10 0.3925906
676.20 0.3924319
676.30 0.3922734
676.40 0.3921147
676.50 0.3919563
676.60 0.3917979
676.70 0.3916396
676.80 0.3914813
676.90 0.3913232
677.00 0.391165
677.10 0.3910071
677.20 0.3908491
677.30 0.3906913
677.40 0.3905334
677.50 0.3903757
677.60 0.3902181
677.70 0.3900605
677.80 0.3899031
677.90 0.3897334
678.00 0.3895616
678.10 0.3893898
678.20 0.3892182
678.30 0.3890466
678.40 0.3888751
678.50 0.3887037
678.60 0.3885325
678.70 0.3883612
678.80 0.3881901
678.90 0.388019
679.00 0.387848
679.10 0.3876714
679.20 0.3874923
679.30 0.3873134
679.40 0.3871345
679.50 0.3869557
679.60 0.3867771
679.70 0.3865985
679.80 0.38642
679.90 0.3862416
680.00 0.3860633
680.10 0.385885
680.20 0.3857069
680.30 0.3855289
680.40 0.3853509
680.50 0.385173
680.60 0.3849952
680.70 0.3848174
680.80 0.3846399
680.90 0.3844624
681.00 0.3842849
681.10 0.3841075
681.20 0.3839303
681.30 0.3837531
681.40 0.383576
681.50 0.383399
681.60 0.3832221
681.70 0.3830453
681.80 0.3828685
681.90 0.3826918
682.00 0.3825152
682.10 0.3823388
682.20 0.3821624
682.30 0.3819861
682.40 0.3818099
682.50 0.3816337
682.60 0.3814576
682.70 0.3812817
682.80 0.3811058
682.90 0.38093
683.00 0.3807543
683.10 0.3805787
683.20 0.3804032
683.30 0.3802278
683.40 0.3800524
683.50 0.3798771
683.60 0.3797019
683.70 0.3795268
683.80 0.3793518
683.90 0.3791769
684.00 0.379002
684.10 0.3788273
684.20 0.3786526
684.30 0.3784781
684.40 0.3783036
684.50 0.3781291
684.60 0.3779549
684.70 0.3777806
684.80 0.3776064
684.90 0.3774324
685.00 0.3772584
685.10 0.3770845
685.20 0.3769107
685.30 0.3767369
685.40 0.3765634
685.50 0.3763898
685.60 0.3762163
685.70 0.3760429
685.80 0.3758696
685.90 0.3756933
686.00 0.3755162
686.10 0.3753392
686.20 0.3751623
686.30 0.3749855
686.40 0.3748088
686.50 0.374632
686.60 0.3744555
686.70 0.374279
686.80 0.3741027
686.90 0.3739264
687.00 0.3737502
687.10 0.373574
687.20 0.373398
687.30 0.3732221
687.40 0.3730462
687.50 0.3728704
687.60 0.3726947
687.70 0.3725191
687.80 0.3723436
687.90 0.3721682
688.00 0.3719928
688.10 0.3718176
688.20 0.3716424
688.30 0.3714673
688.40 0.3712923
688.50 0.3711174
688.60 0.3709426
688.70 0.3707679
688.80 0.3705932
688.90 0.3704187
689.00 0.3702441
689.10 0.3700697
689.20 0.3698955
689.30 0.3697212
689.40 0.369547
689.50 0.369373
689.60 0.3691991
689.70 0.3690251
689.80 0.3688513
689.90 0.3686776
690.00 0.368504
690.10 0.3683305
690.20 0.368157
690.30 0.3679836
690.40 0.3678103
690.50 0.3676371
690.60 0.367464
690.70 0.367291
690.80 0.367118
690.90 0.3669451
691.00 0.3667724
691.10 0.3665997
691.20 0.3664271
691.30 0.3662546
691.40 0.3660821
691.50 0.3659098
691.60 0.3657375
691.70 0.3655652
691.80 0.3653932
691.90 0.3652212
692.00 0.3650492
692.10 0.3648773
692.20 0.3647056
692.30 0.3645339
692.40 0.3643624
692.50 0.3641908
692.60 0.3640194
692.70 0.3638477
692.80 0.3636749
692.90 0.3635022
693.00 0.3633295
693.10 0.363157
693.20 0.3629845
693.30 0.3628122
693.40 0.3626399
693.50 0.3624677
693.60 0.3622956
693.70 0.3621235
693.80 0.3619515
693.90 0.3617797
694.00 0.3616079
694.10 0.3614361
694.20 0.3612646
694.30 0.3610931
694.40 0.3609215
694.50 0.3607502
694.60 0.360579
694.70 0.3604077
694.80 0.3602366
694.90 0.3600655
695.00 0.3598946
695.10 0.3597237
695.20 0.359553
695.30 0.3593822
695.40 0.3592117
695.50 0.3590411
695.60 0.3588707
695.70 0.3587003
695.80 0.3585301
695.90 0.3583598
696.00 0.3581897
696.10 0.3580197
696.20 0.3578497
696.30 0.3576798
696.40 0.35751
696.50 0.3573404
696.60 0.3571685
696.70 0.3569962
696.80 0.356824
696.90 0.3566518
697.00 0.3564798
697.10 0.3563078
697.20 0.3561359
697.30 0.3559641
697.40 0.3557924
697.50 0.3556207
697.60 0.3554492
697.70 0.3552778
697.80 0.3551063
697.90 0.354935
698.00 0.3547639
698.10 0.3545927
698.20 0.3544217
698.30 0.3542506
698.40 0.3540798
698.50 0.353909
698.60 0.3537383
698.70 0.3535676
698.80 0.3533971
698.90 0.3532266
699.00 0.3530562
699.10 0.3528822
699.20 0.3527073
699.30 0.3525327
699.40 0.352358
699.50 0.3521833
699.60 0.3520089
699.70 0.351832
699.80 0.351655
699.90 0.3514781
700.00 0.3513013
700.10 0.3511245
700.20 0.3509479
700.30 0.3507714
700.40 0.3505949
700.50 0.3504186
700.60 0.3502423
700.70 0.3500661
700.80 0.34989
700.90 0.349714
701.00 0.3495381
701.10 0.3493471
701.20 0.3491527
701.30 0.3489585
701.40 0.3487643
701.50 0.3485702
701.60 0.3483762
701.70 0.3481824
701.80 0.3479886
701.90 0.3477949
702.00 0.3476013
702.10 0.3474078
702.20 0.3472145
702.30 0.3470211
702.40 0.3468279
702.50 0.3466348
702.60 0.3463858
702.70 0.3461237
702.80 0.3458618
702.90 0.3456
703.00 0.3453384
703.10 0.3450769
703.20 0.3448155
703.30 0.3445543
703.40 0.3442932
703.50 0.3440323
703.60 0.3437715
703.70 0.3435108
703.80 0.3432503
703.90 0.3429898
704.00 0.3427295
704.10 0.3424694
704.20 0.341992
704.30 0.3414638
704.40 0.3409359
704.50 0.3404083
704.60 0.3398809
704.70 0.3393539
704.80 0.3388272
704.90 0.3383008
705.00 0.3377746
705.10 0.3372488
705.20 0.3360082
705.30 0.3346007
705.40 0.333194
705.50 0.3317881
705.60 0.330383
705.70 0.3289787
705.80 0.3254953
705.90 0.3215263
706.00 0.3175594
706.10 0.3135948
706.20 0.3046038
706.30 0.2944386
706.40 0.2769406
706.50 0.2487752
706.60 0.2497251
706.70 0.2768835
706.80 0.2904588
706.90 0.3024085
707.00 0.3082792
707.10 0.3127226
707.20 0.3171634
707.30 0.3216018
707.40 0.323576
707.50 0.3249719
707.60 0.326367
707.70 0.3277612
707.80 0.3291547
707.90 0.3305474
708.00 0.3310749
708.10 0.3313994
708.20 0.3317237
708.30 0.3320478
708.40 0.3323717
708.50 0.3326954
708.60 0.3330189
708.70 0.3333422
708.80 0.3336653
708.90 0.3339883
709.00 0.3340266
709.10 0.3339981
709.20 0.3339697
709.30 0.3339413
709.40 0.333913
709.50 0.3338845
709.60 0.3338561
709.70 0.3338277
709.80 0.3337994
709.90 0.3337709
710.00 0.3337425
710.10 0.3337142
710.20 0.3336857
710.30 0.3336573
710.40 0.333629
710.50 0.3336006
710.60 0.3335033
710.70 0.3333899
710.80 0.3332765
710.90 0.3331632
711.00 0.33305
711.10 0.3329368
711.20 0.3328236
711.30 0.3327106
711.40 0.3325974
711.50 0.3324844
711.60 0.3323715
711.70 0.3322586
711.80 0.3321458
711.90 0.3320329
712.00 0.3319202
712.10 0.3317884
712.20 0.3316522
712.30 0.3315161
712.40 0.3313799
712.50 0.3312439
712.60 0.331108
712.70 0.3309721
712.80 0.3308362
712.90 0.3307004
713.00 0.3305647
713.10 0.3304291
713.20 0.3302935
713.30 0.330158
713.40 0.3300225
713.50 0.3298871
713.60 0.3297517
713.70 0.3296151
713.80 0.3294755
713.90 0.329336
714.00 0.3291966
714.10 0.3290523
714.20 0.3289071
714.30 0.3287619
714.40 0.3286167
714.50 0.3284717
714.60 0.3283267
714.70 0.3281818
714.80 0.3280369
714.90 0.3278921
715.00 0.3277474
715.10 0.3276028
715.20 0.3274582
715.30 0.3273136
715.40 0.3271693
715.50 0.3270249
715.60 0.3268805
715.70 0.3267363
715.80 0.3265921
715.90 0.3264481
716.00 0.326304
716.10 0.32616
716.20 0.3260161
716.30 0.3258723
716.40 0.3257285
716.50 0.3255848
716.60 0.3254405
716.70 0.3252962
716.80 0.3251519
716.90 0.3250076
717.00 0.3248634
717.10 0.3247193
717.20 0.3245754
717.30 0.3244314
717.40 0.3242875
717.50 0.3241436
717.60 0.3239999
717.70 0.3238562
717.80 0.3237125
717.90 0.323569
718.00 0.3234255
718.10 0.3232821
718.20 0.3231361
718.30 0.3229887
718.40 0.3228413
718.50 0.3226941
718.60 0.3225469
718.70 0.3223997
718.80 0.3222526
718.90 0.3221056
719.00 0.3219587
719.10 0.3218119
719.20 0.3216651
719.30 0.3215184
719.40 0.3213717
719.50 0.3212251
719.60 0.3210786
719.70 0.3209321
719.80 0.3207858
719.90 0.3206395
720.00 0.3204933
720.10 0.3203471
720.20 0.320201
720.30 0.3200549
720.40 0.319909
720.50 0.3197632
720.60 0.3196173
720.70 0.3194616
720.80 0.3193006
720.90 0.3191515
721.00 0.3190029
721.10 0.3188544
721.20 0.318706
721.30 0.3185577
721.40 0.3184094
721.50 0.3182611
721.60 0.3181129
721.70 0.3179649
721.80 0.3178168
721.90 0.3176689
722.00 0.317521
722.10 0.3173732
722.20 0.3172254
722.30 0.3170778
722.40 0.3169302
722.50 0.3167826
722.60 0.3166352
722.70 0.3164863
722.80 0.3163366
722.90 0.316187
723.00 0.3160374
723.10 0.3158879
723.20 0.3157385
723.30 0.3155891
723.40 0.3154399
723.50 0.3152906
723.60 0.3151416
723.70 0.3149925
723.80 0.3148434
723.90 0.3146946
724.00 0.3145457
724.10 0.3143969
724.20 0.3142376
724.30 0.3140726
724.40 0.3139077
724.50 0.3137429
724.60 0.3135782
724.70 0.3134136
724.80 0.313249
724.90 0.3130845
725.00 0.3129201
725.10 0.3127558
725.20 0.3125916
725.30 0.3124274
725.40 0.3122634
725.50 0.3120994
725.60 0.3119355
725.70 0.3117716
725.80 0.3115617
725.90 0.3113273
726.00 0.311093
726.10 0.3108586
726.20 0.3106246
726.30 0.3103905
726.40 0.3101566
726.50 0.3099228
726.60 0.3096891
726.70 0.3094556
726.80 0.3090406
726.90 0.3085283
727.00 0.3080161
727.10 0.3075042
727.20 0.3069927
727.30 0.3064814
727.40 0.3052595
727.50 0.3036555
727.60 0.3020524
727.70 0.3004502
727.80 0.2964459
727.90 0.2911501
728.00 0.2815156
728.10 0.258127
728.20 0.2546377
728.30 0.2748434
728.40 0.2837847
728.50 0.2906477
728.60 0.2944548
728.70 0.2966166
728.80 0.2987772
728.90 0.3009367
729.00 0.3020051
729.10 0.3024865
729.20 0.3029676
729.30 0.3034484
729.40 0.3039289
729.50 0.3044091
729.60 0.304585
729.70 0.3045969
729.80 0.3046088
729.90 0.3046207
730.00 0.3046326
730.10 0.3046446
730.20 0.3046564
730.30 0.3046682
730.40 0.30468
730.50 0.3046918
730.60 0.3046288
730.70 0.3045257
730.80 0.3044225
730.90 0.3043194
731.00 0.3042163
731.10 0.3041133
731.20 0.3040104
731.30 0.3039074
731.40 0.3038046
731.50 0.3037017
731.60 0.3035988
731.70 0.3034962
731.80 0.3033934
731.90 0.3032908
732.00 0.3031882
732.10 0.3030856
732.20 0.3029685
732.30 0.3028437
732.40 0.3027189
732.50 0.3025942
732.60 0.3024694
732.70 0.3023449
732.80 0.3022202
732.90 0.3020958
733.00 0.3019713
733.10 0.3018469
733.20 0.3017226
733.30 0.3015983
733.40 0.3014741
733.50 0.3013499
733.60 0.3012258
733.70 0.3010966
733.80 0.3009647
733.90 0.3008329
734.00 0.3007012
734.10 0.3005695
734.20 0.3004378
734.30 0.3003062
734.40 0.3001746
734.50 0.3000433
734.60 0.2999118
734.70 0.2997805
734.80 0.2996492
734.90 0.299518
735.00 0.2993868
735.10 0.2992557
735.20 0.2991246
735.30 0.2989931
735.40 0.2988547
735.50 0.2987164
735.60 0.2985782
735.70 0.2984435
735.80 0.2983107
735.90 0.2981781
736.00 0.2980455
736.10 0.297913
736.20 0.2977804
736.30 0.297648
736.40 0.2975157
736.50 0.2973833
736.60 0.2972511
736.70 0.2971189
736.80 0.2969868
736.90 0.2968548
737.00 0.2967227
737.10 0.2965908
737.20 0.2964589
737.30 0.2963271
737.40 0.2961953
737.50 0.2960636
737.60 0.295932
737.70 0.2958005
737.80 0.2956689
737.90 0.2955375
738.00 0.2954061
738.10 0.2952747
738.20 0.2951432
738.30 0.2950116
738.40 0.29488
738.50 0.2947485
738.60 0.2946171
738.70 0.2944857
738.80 0.2943544
738.90 0.2942232
739.00 0.294092
739.10 0.2939608
739.20 0.2938298
739.30 0.2936987
739.40 0.2935678
739.50 0.2934369
739.60 0.293306
739.70 0.2931753
739.80 0.2930446
739.90 0.2929139
740.00 0.2927833
740.10 0.2926528
740.20 0.2925223
740.30 0.2923919
740.40 0.2922616
740.50 0.2921313
740.60 0.292001
740.70 0.2918708
740.80 0.2917407
740.90 0.2916107
741.00 0.2914807
741.10 0.2913508
741.20 0.2912208
741.30 0.291091
741.40 0.2909613
741.50 0.2908316
741.60 0.290702
741.70 0.2905723
741.80 0.2904428
741.90 0.2903134
742.00 0.2901839
742.10 0.2900546
742.20 0.2899254
742.30 0.2897961
742.40 0.289667
742.50 0.2895379
742.60 0.2894088
742.70 0.2892794
742.80 0.2891496
742.90 0.2890198
743.00 0.2888902
743.10 0.2887606
743.20 0.2886311
743.30 0.2885015
743.40 0.2883721
743.50 0.2882428
743.60 0.2881134
743.70 0.2879844
743.80 0.287856
743.90 0.2877278
744.00 0.2875996
744.10 0.2874714
744.20 0.2873434
744.30 0.2872153
744.40 0.2870874
744.50 0.2869595
744.60 0.2868316
744.70 0.2867038
744.80 0.2865761
744.90 0.2864484
745.00 0.2863207
745.10 0.2861933
745.20 0.2860657
745.30 0.2859383
745.40 0.2858109
745.50 0.2856835
745.60 0.2855563
745.70 0.2854291
745.80 0.2853019
745.90 0.2851748
746.00 0.2850478
746.10 0.2849208
746.20 0.2847939
746.30 0.284667
746.40 0.2845403
746.50 0.2844135
746.60 0.2842868
746.70 0.2841602
746.80 0.2840336
746.90 0.2839071
747.00 0.2837807
747.10 0.2836543
747.20 0.2835279
747.30 0.2834016
747.40 0.2832753
747.50 0.2831492
747.60 0.2830231
747.70 0.282897
747.80 0.282771
747.90 0.2826451
748.00 0.2825192
748.10 0.2823934
748.20 0.2822676
748.30 0.2821419
748.40 0.2820162
748.50 0.2818907
748.60 0.2817651
748.70 0.2816396
748.80 0.2815142
748.90 0.2813888
749.00 0.2812635
749.10 0.2811382
749.20 0.281013
749.30 0.2808879
749.40 0.2807628
749.50 0.2806378
749.60 0.2805128
749.70 0.2803879
749.80 0.280263
749.90 0.2801382
750.00 0.2800135
750.10 0.2798887
750.20 0.279764
750.30 0.2796393
750.40 0.2795146
750.50 0.27939
750.60 0.2792654
750.70 0.279141
750.80 0.2790165
750.90 0.2788922
751.00 0.2787678
751.10 0.2786436
751.20 0.2785194
751.30 0.2783953
751.40 0.2782712
751.50 0.2781471
751.60 0.2780232
751.70 0.2778992
751.80 0.2777754
751.90 0.2776516
752.00 0.2775278
752.10 0.2774041
752.20 0.2772805
752.30 0.2771569
752.40 0.2770334
752.50 0.2769099
752.60 0.2767865
752.70 0.2766631
752.80 0.2765398
752.90 0.2764166
753.00 0.2762933
753.10 0.2761702
753.20 0.2760471
753.30 0.2759241
753.40 0.2758011
753.50 0.2756782
753.60 0.2755553
753.70 0.2754325
753.80 0.2753098
753.90 0.2751878
754.00 0.2750662
754.10 0.2749446
754.20 0.2748231
754.30 0.2747016
754.40 0.2745802
754.50 0.2744588
754.60 0.2743375
754.70 0.2742162
754.80 0.274095
754.90 0.2739739
755.00 0.2738528
755.10 0.2737317
755.20 0.2736107
755.30 0.2734898
755.40 0.2733689
755.50 0.2732481
755.60 0.2731273
755.70 0.2730065
755.80 0.2728859
755.90 0.2727653
756.00 0.2726447
756.10 0.2725243
756.20 0.2724038
756.30 0.2722834
756.40 0.272163
756.50 0.2720428
756.60 0.2719225
756.70 0.2718024
756.80 0.2716822
756.90 0.2715622
757.00 0.2714421
757.10 0.2713222
757.20 0.2712023
757.30 0.2710825
757.40 0.2709626
757.50 0.2708429
757.60 0.2707234
757.70 0.2706042
757.80 0.2704851
757.90 0.270366
758.00 0.2702471
758.10 0.2701281
758.20 0.2700092
758.30 0.2698904
758.40 0.2697716
758.50 0.2696529
758.60 0.2695342
758.70 0.2694156
758.80 0.269297
758.90 0.2691785
759.00 0.26906
759.10 0.2689416
759.20 0.2688232
759.30 0.2687049
759.40 0.2685867
759.50 0.2684685
759.60 0.2683503
759.70 0.2682322
759.80 0.2681142
759.90 0.2679962
760.00 0.2678783
760.10 0.2677604
760.20 0.2676426
760.30 0.2675248
760.40 0.2674071
760.50 0.2672894
760.60 0.2671718
760.70 0.2670543
760.80 0.2669368
760.90 0.2668192
761.00 0.2667019
761.10 0.2665845
761.20 0.2664672
761.30 0.26635
761.40 0.2662327
761.50 0.2661156
761.60 0.2659985
761.70 0.2658815
761.80 0.2657646
761.90 0.2656476
762.00 0.2655307
762.10 0.2654139
762.20 0.2652971
762.30 0.2651804
762.40 0.2650637
762.50 0.264947
762.60 0.2648305
762.70 0.264714
762.80 0.2645975
762.90 0.2644811
763.00 0.2643647
763.10 0.2642484
763.20 0.2641322
763.30 0.264016
763.40 0.2638998
763.50 0.2637837
763.60 0.2636677
763.70 0.2635516
763.80 0.2634357
763.90 0.2633198
764.00 0.263204
764.10 0.2630882
764.20 0.2629725
764.30 0.2628567
764.40 0.2627411
764.50 0.2626255
764.60 0.26251
764.70 0.2623945
764.80 0.2622791
764.90 0.2621637
765.00 0.2620484
765.10 0.2619331
765.20 0.2618183
765.30 0.2617041
765.40 0.2615899
765.50 0.2614757
765.60 0.2613616
765.70 0.2612477
765.80 0.2611337
765.90 0.2610198
766.00 0.2609059
766.10 0.2607921
766.20 0.2606783
766.30 0.2605645
766.40 0.2604508
766.50 0.2603371
766.60 0.2602236
766.70 0.26011
766.80 0.2599966
766.90 0.2598832
767.00 0.2597698
767.10 0.2596565
767.20 0.2595432
767.30 0.25943
767.40 0.2593167
767.50 0.2592036
767.60 0.2590906
767.70 0.2589776
767.80 0.2588646
767.90 0.2587516
768.00 0.2586387
768.10 0.2585259
768.20 0.2584132
768.30 0.2583004
768.40 0.2581877
768.50 0.2580751
768.60 0.2579625
768.70 0.25785
768.80 0.2577375
768.90 0.257625
769.00 0.2575127
769.10 0.2574004
769.20 0.2572881
769.30 0.2571759
769.40 0.2570637
769.50 0.2569515
769.60 0.2568395
769.70 0.2567274
769.80 0.2566155
769.90 0.2565035
770.00 0.2563917
770.10 0.2562798
770.20 0.256168
770.30 0.2560562
770.40 0.2559446
770.50 0.2558329
770.60 0.2557214
770.70 0.2556098
770.80 0.2554984
770.90 0.2553869
771.00 0.2552756
771.10 0.2551642
771.20 0.2550529
771.30 0.2549417
771.40 0.2548304
771.50 0.2547193
771.60 0.2546082
771.70 0.2544972
771.80 0.2543861
771.90 0.2542753
772.00 0.2541643
772.10 0.2540534
772.20 0.2539427
772.30 0.2538319
772.40 0.2537212
772.50 0.2536105
772.60 0.2535
772.70 0.2533894
772.80 0.2532789
772.90 0.2531693
773.00 0.2530598
773.10 0.2529504
773.20 0.252841
773.30 0.2527316
773.40 0.2526223
773.50 0.252513
773.60 0.2524038
773.70 0.2522946
773.80 0.2521854
773.90 0.2520764
774.00 0.2519674
774.10 0.2518584
774.20 0.2517495
774.30 0.2516406
774.40 0.2515317
774.50 0.2514229
774.60 0.2513142
774.70 0.2512055
774.80 0.2510968
774.90 0.2509882
775.00 0.2508797
775.10 0.2507712
775.20 0.2506627
775.30 0.2505543
775.40 0.250446
775.50 0.2503376
775.60 0.2502294
775.70 0.2501212
775.80 0.2500129
775.90 0.2499048
776.00 0.2497968
776.10 0.2496887
776.20 0.2495808
776.30 0.2494728
776.40 0.2493649
776.50 0.2492571
776.60 0.2491493
776.70 0.2490416
776.80 0.2489338
776.90 0.2488262
777.00 0.2487186
777.10 0.2486111
777.20 0.2485035
777.30 0.2483961
777.40 0.2482886
777.50 0.2481813
777.60 0.2480739
777.70 0.2479667
777.80 0.2478595
777.90 0.2477522
778.00 0.2476452
778.10 0.247538
778.20 0.2474311
778.30 0.247324
778.40 0.247217
778.50 0.2471102
778.60 0.2470033
778.70 0.2468965
778.80 0.2467898
778.90 0.2466831
779.00 0.2465764
779.10 0.2464698
779.20 0.2463632
779.30 0.2462567
779.40 0.2461502
779.50 0.2460438
779.60 0.2459374
779.70 0.245831
779.80 0.2457247
779.90 0.2456184
780.00 0.2455123
780.10 0.2454061
780.20 0.2453
780.30 0.2451939
780.40 0.2450879
780.50 0.2449819
780.60 0.2448761
780.70 0.2447705
780.80 0.2446649
780.90 0.2445593
781.00 0.2444537
781.10 0.2443482
781.20 0.2442427
781.30 0.2441373
781.40 0.2440319
781.50 0.2439266
781.60 0.2438213
781.70 0.2437161
781.80 0.2436108
781.90 0.2435057
782.00 0.2434006
782.10 0.2432956
782.20 0.2431906
782.30 0.2430856
782.40 0.2429807
782.50 0.2428758
782.60 0.242771
782.70 0.2426662
782.80 0.2425615
782.90 0.2424568
783.00 0.2423522
783.10 0.2422476
783.20 0.242143
783.30 0.2420385
783.40 0.241934
783.50 0.2418297
783.60 0.2417253
783.70 0.2416209
783.80 0.2415167
783.90 0.2414125
784.00 0.2413082
784.10 0.2412041
784.20 0.2411
784.30 0.2409959
784.40 0.2408919
784.50 0.240788
784.60 0.2406842
784.70 0.2405809
784.80 0.2404775
784.90 0.2403743
785.00 0.240271
785.10 0.2401678
785.20 0.2400647
785.30 0.2399616
785.40 0.2398585
785.50 0.2397556
785.60 0.2396525
785.70 0.2395496
785.80 0.2394468
785.90 0.2393439
786.00 0.2392412
786.10 0.2391384
786.20 0.2390357
786.30 0.2389331
786.40 0.2388304
786.50 0.2387278
786.60 0.2386254
786.70 0.2385229
786.80 0.2384204
786.90 0.238318
787.00 0.2382157
787.10 0.2381134
787.20 0.2380111
787.30 0.2379089
787.40 0.2378068
787.50 0.2377047
787.60 0.2376026
787.70 0.2375005
787.80 0.2373985
787.90 0.2372966
788.00 0.2371947
788.10 0.2370928
788.20 0.236991
788.30 0.2368892
788.40 0.2367876
788.50 0.2366861
788.60 0.2365846
788.70 0.2364833
788.80 0.2363819
788.90 0.2362805
789.00 0.2361792
789.10 0.236078
789.20 0.2359768
789.30 0.2358756
789.40 0.2357745
789.50 0.2356734
789.60 0.2355724
789.70 0.2354713
789.80 0.2353703
789.90 0.2352694
790.00 0.2351686
790.10 0.2350678
790.20 0.234967
790.30 0.2348663
790.40 0.2347656
790.50 0.234665
790.60 0.2345644
790.70 0.2344637
790.80 0.2343632
790.90 0.2342628
791.00 0.2341624
791.10 0.234062
791.20 0.2339616
791.30 0.2338613
791.40 0.2337611
791.50 0.2336609
791.60 0.2335607
791.70 0.2334605
791.80 0.2333605
791.90 0.2332605
792.00 0.2331604
792.10 0.2330605
792.20 0.2329606
792.30 0.2328609
792.40 0.232762
792.50 0.232663
792.60 0.2325641
792.70 0.2324652
792.80 0.2323665
792.90 0.2322677
793.00 0.2321689
793.10 0.2320703
793.20 0.2319716
793.30 0.2318731
793.40 0.2317745
793.50 0.2316759
793.60 0.2315775
793.70 0.2314791
793.80 0.2313806
793.90 0.2312824
794.00 0.231184
794.10 0.2310857
794.20 0.2309876
794.30 0.2308894
794.40 0.2307912
794.50 0.2306931
794.60 0.2305951
794.70 0.2304971
794.80 0.2303991
794.90 0.2303012
795.00 0.2302034
795.10 0.2301055
795.20 0.2300077
795.30 0.2299099
795.40 0.2298122
795.50 0.2297145
795.60 0.229617
795.70 0.2295194
795.80 0.2294218
795.90 0.2293243
796.00 0.2292268
796.10 0.2291294
796.20 0.229032
796.30 0.2289346
796.40 0.2288373
796.50 0.2287401
796.60 0.2286429
796.70 0.2285457
796.80 0.2284485
796.90 0.2283514
797.00 0.2282544
797.10 0.2281573
797.20 0.2280604
797.30 0.2279634
797.40 0.2278665
797.50 0.2277697
797.60 0.2276729
797.70 0.2275761
797.80 0.2274793
797.90 0.2273826
798.00 0.2272859
798.10 0.2271893
798.20 0.2270928
798.30 0.2269963
798.40 0.2268998
798.50 0.2268034
798.60 0.226707
798.70 0.2266105
798.80 0.2265142
798.90 0.2264179
799.00 0.2263217
799.10 0.2262255
799.20 0.2261294
799.30 0.2260332
799.40 0.2259372
799.50 0.2258412
799.60 0.2257452
799.70 0.2256492
799.80 0.2255533
799.90 0.2254574
800.00 0.2253616
800.10 0.2252658
800.20 0.22517
800.30 0.2250744
800.40 0.2249786
800.50 0.224883
800.60 0.2247875
800.70 0.2246919
800.80 0.2245964
800.90 0.224501
801.00 0.2244055
801.10 0.2243102
801.20 0.2242149
801.30 0.2241195
801.40 0.2240243
801.50 0.223929
801.60 0.2238339
801.70 0.2237387
801.80 0.2236436
801.90 0.2235486
802.00 0.2234535
802.10 0.2233586
802.20 0.2232636
802.30 0.2231688
802.40 0.2230739
802.50 0.2229791
802.60 0.2228843
802.70 0.2227895
802.80 0.2226949
802.90 0.2226002
803.00 0.2225056
803.10 0.222411
803.20 0.2223165
803.30 0.222222
803.40 0.2221275
803.50 0.2220332
803.60 0.2219387
803.70 0.2218445
803.80 0.2217502
803.90 0.2216559
804.00 0.2215617
804.10 0.2214675
804.20 0.2213735
804.30 0.2212802
804.40 0.221187
804.50 0.2210938
804.60 0.2210006
804.70 0.2209075
804.80 0.2208144
804.90 0.2207213
805.00 0.2206283
805.10 0.2205353
805.20 0.2204424
805.30 0.2203495
805.40 0.2202566
805.50 0.2201638
805.60 0.220071
805.70 0.2199782
805.80 0.2198855
805.90 0.2197929
806.00 0.2197003
806.10 0.2196077
806.20 0.2195151
806.30 0.2194226
806.40 0.2193302
806.50 0.2192377
806.60 0.2191454
806.70 0.2190529
806.80 0.2189606
806.90 0.2188683
807.00 0.2187761
807.10 0.2186839
807.20 0.2185918
807.30 0.2184997
807.40 0.2184076
807.50 0.2183155
807.60 0.2182235
807.70 0.2181316
807.80 0.2180397
807.90 0.2179478
808.00 0.2178559
808.10 0.2177641
808.20 0.2176724
808.30 0.2175814
808.40 0.2174905
808.50 0.2173997
808.60 0.2173089
808.70 0.2172181
808.80 0.2171274
808.90 0.2170367
809.00 0.216946
809.10 0.2168554
809.20 0.2167648
809.30 0.2166743
809.40 0.2165838
809.50 0.2164933
809.60 0.2164029
809.70 0.2163125
809.80 0.2162222
809.90 0.2161318
810.00 0.2160416
810.10 0.2159513
810.20 0.2158611
810.30 0.215771
810.40 0.2156808
810.50 0.2155907
810.60 0.2155007
810.70 0.2154107
810.80 0.2153207
810.90 0.2152308
811.00 0.2151409
811.10 0.215051
811.20 0.2149612
811.30 0.2148714
811.40 0.2147816
811.50 0.214692
811.60 0.2146023
811.70 0.2145126
811.80 0.214423
811.90 0.2143335
812.00 0.214244
812.10 0.2141545
812.20 0.214065
812.30 0.2139753
812.40 0.2138857
812.50 0.2137961
812.60 0.2137064
812.70 0.2136168
812.80 0.2135274
812.90 0.2134378
813.00 0.2133484
813.10 0.2132589
813.20 0.2131696
813.30 0.2130803
813.40 0.2129909
813.50 0.2129016
813.60 0.2128124
813.70 0.2127232
813.80 0.212634
813.90 0.212545
814.00 0.2124559
814.10 0.2123668
814.20 0.2122778
814.30 0.2121888
814.40 0.2120999
814.50 0.2120109
814.60 0.2119221
814.70 0.2118332
814.80 0.2117445
814.90 0.2116557
815.00 0.211567
815.10 0.2114784
815.20 0.2113898
815.30 0.2113012
815.40 0.2112126
815.50 0.2111241
815.60 0.2110356
815.70 0.2109471
815.80 0.2108586
815.90 0.2107702
816.00 0.2106819
816.10 0.2105936
816.20 0.2105054
816.30 0.2104171
816.40 0.2103289
816.50 0.2102408
816.60 0.2101527
816.70 0.2100646
816.80 0.2099766
816.90 0.2098885
817.00 0.2098005
817.10 0.2097126
817.20 0.2096247
817.30 0.2095369
817.40 0.2094491
817.50 0.2093613
817.60 0.2092735
817.70 0.2091858
817.80 0.2090981
817.90 0.2090105
818.00 0.2089228
818.10 0.2088352
818.20 0.2087477
818.30 0.2086603
818.40 0.2085727
818.50 0.2084853
818.60 0.208398
818.70 0.2083107
818.80 0.2082233
818.90 0.208136
819.00 0.2080488
819.10 0.2079615
819.20 0.2078744
819.30 0.2077891
819.40 0.207705
819.50 0.207621
819.60 0.207537
819.70 0.2074531
819.80 0.2073692
819.90 0.2072853
820.00 0.2072014
820.10 0.2071206
820.20 0.2070337
820.30 0.2069424
820.40 0.2068544
820.50 0.2067687
820.60 0.2066832
820.70 0.2065977
820.80 0.2065121
820.90 0.2064266
821.00 0.2063413
821.10 0.2062559
821.20 0.2061705
821.30 0.2060851
821.40 0.2059999
821.50 0.2059147
821.60 0.2058294
821.70 0.2057442
821.80 0.205659
821.90 0.205574
822.00 0.2054889
822.10 0.2054039
822.20 0.2053188
822.30 0.2052339
822.40 0.2051489
822.50 0.205064
822.60 0.2049792
822.70 0.2048944
822.80 0.2048096
822.90 0.2047248
823.00 0.2046401
823.10 0.2045554
823.20 0.2044707
823.30 0.2043861
823.40 0.2043015
823.50 0.2042169
823.60 0.2041324
823.70 0.2040479
823.80 0.2039635
823.90 0.2038791
824.00 0.2037947
824.10 0.2037104
824.20 0.2036261
824.30 0.2035418
824.40 0.2034576
824.50 0.2033734
824.60 0.2032892
824.70 0.2032051
824.80 0.203121
824.90 0.203037
825.00 0.2029529
825.10 0.202869
825.20 0.202785
825.30 0.2027011
825.40 0.2026172
825.50 0.2025334
825.60 0.2024495
825.70 0.2023657
825.80 0.202282
825.90 0.2021983
826.00 0.2021146
826.10 0.202031
826.20 0.2019473
826.30 0.2018636
826.40 0.2017798
826.50 0.201696
826.60 0.2016123
826.70 0.2015286
826.80 0.201445
826.90 0.2013613
827.00 0.2012777
827.10 0.2011942
827.20 0.2011107
827.30 0.2010272
827.40 0.2009437
827.50 0.2008603
827.60 0.2007769
827.70 0.2006936
827.80 0.2006103
827.90 0.2005269
828.00 0.2004437
828.10 0.2003605
828.20 0.2002772
828.30 0.2001941
828.40 0.200111
828.50 0.200028
828.60 0.1999454
828.70 0.1998633
828.80 0.1997812
828.90 0.1996992
829.00 0.1996171
829.10 0.1995351
829.20 0.1994532
829.30 0.1993713
829.40 0.1992895
829.50 0.1992076
829.60 0.1991257
829.70 0.199044
829.80 0.1989622
829.90 0.1988806
830.00 0.1987989
830.10 0.1987172
830.20 0.1986357
830.30 0.1985541
830.40 0.1984725
830.50 0.1983911
830.60 0.1983095
830.70 0.1982281
830.80 0.1981467
830.90 0.1980653
831.00 0.197984
831.10 0.1979027
831.20 0.1978214
831.30 0.1977402
831.40 0.1976589
831.50 0.1975778
831.60 0.1974967
831.70 0.1974156
831.80 0.1973345
831.90 0.1972534
832.00 0.1971725
832.10 0.1970915
832.20 0.1970105
832.30 0.1969296
832.40 0.1968487
832.50 0.196768
832.60 0.1966871
832.70 0.1966063
832.80 0.1965256
832.90 0.1964449
833.00 0.1963642
833.10 0.1962835
833.20 0.196203
833.30 0.1961224
833.40 0.1960419
833.50 0.1959614
833.60 0.1958809
833.70 0.1958004
833.80 0.19572
833.90 0.1956396
834.00 0.1955593
834.10 0.195479
834.20 0.1953987
834.30 0.1953184
834.40 0.1952382
834.50 0.195158
834.60 0.1950779
834.70 0.1949978
834.80 0.1949177
834.90 0.1948376
835.00 0.1947576
835.10 0.1946776
835.20 0.1945977
835.30 0.1945178
835.40 0.1944379
835.50 0.1943581
835.60 0.1942783
835.70 0.1941985
835.80 0.1941187
835.90 0.194039
836.00 0.1939593
836.10 0.1938796
836.20 0.1938
836.30 0.1937204
836.40 0.1936409
836.50 0.1935613
836.60 0.1934819
836.70 0.1934024
836.80 0.1933229
836.90 0.193244
837.00 0.1931654
837.10 0.1930867
837.20 0.1930081
837.30 0.1929296
837.40 0.1928509
837.50 0.1927725
837.60 0.192694
837.70 0.1926155
837.80 0.1925371
837.90 0.1924587
838.00 0.1923804
838.10 0.192302
838.20 0.1922238
838.30 0.1921455
838.40 0.1920673
838.50 0.1919891
838.60 0.1919109
838.70 0.1918328
838.80 0.1917547
838.90 0.1916766
839.00 0.1915986
839.10 0.1915206
839.20 0.1914426
839.30 0.1913647
839.40 0.1912867
839.50 0.1912089
839.60 0.191131
839.70 0.1910533
839.80 0.1909754
839.90 0.1908977
840.00 0.19082
840.10 0.1907423
840.20 0.1906647
840.30 0.190587
840.40 0.1905095
840.50 0.1904319
840.60 0.1903543
840.70 0.1902769
840.80 0.1901994
840.90 0.1901219
841.00 0.1900446
841.10 0.1899672
841.20 0.1898898
841.30 0.1898125
841.40 0.1897352
841.50 0.189658
841.60 0.1895808
841.70 0.1895036
841.80 0.1894265
841.90 0.1893494
842.00 0.1892723
842.10 0.1891952
842.20 0.1891182
842.30 0.1890413
842.40 0.1889643
842.50 0.1888873
842.60 0.1888104
842.70 0.1887336
842.80 0.1886568
842.90 0.18858
843.00 0.1885032
843.10 0.1884264
843.20 0.1883498
843.30 0.1882731
843.40 0.1881964
843.50 0.1881198
843.60 0.1880432
843.70 0.1879666
843.80 0.1878902
843.90 0.1878137
844.00 0.1877372
844.10 0.1876608
844.20 0.1875844
844.30 0.187508
844.40 0.1874316
844.50 0.1873553
844.60 0.1872791
844.70 0.1872029
844.80 0.1871267
844.90 0.1870505
845.00 0.1869743
845.10 0.1868982
845.20 0.1868221
845.30 0.1867464
845.40 0.1866706
845.50 0.186595
845.60 0.1865193
845.70 0.1864437
845.80 0.1863681
845.90 0.1862924
846.00 0.1862169
846.10 0.1861414
846.20 0.186066
846.30 0.1859905
846.40 0.1859151
846.50 0.1858398
846.60 0.1857644
846.70 0.1856891
846.80 0.1856137
846.90 0.1855385
847.00 0.1854633
847.10 0.1853881
847.20 0.1853129
847.30 0.1852378
847.40 0.1851626
847.50 0.1850876
847.60 0.1850125
847.70 0.1849375
847.80 0.1848626
847.90 0.1847875
848.00 0.1847126
848.10 0.1846377
848.20 0.1845629
848.30 0.184488
848.40 0.1844132
848.50 0.1843385
848.60 0.1842637
848.70 0.184189
848.80 0.1841143
848.90 0.1840397
849.00 0.183965
849.10 0.1838904
849.20 0.1838159
849.30 0.1837413
849.40 0.1836668
849.50 0.1835923
849.60 0.1835178
849.70 0.1834435
849.80 0.1833691
849.90 0.1832947
850.00 0.1832204
850.10 0.1831461
850.20 0.1830718
850.30 0.1829976
850.40 0.1829233
850.50 0.1828492
850.60 0.182775
850.70 0.1827009
850.80 0.1826269
850.90 0.1825528
851.00 0.1824788
851.10 0.1824047
851.20 0.1823308
851.30 0.1822568
851.40 0.1821829
851.50 0.182109
851.60 0.1820352
851.70 0.1819613
851.80 0.1818876
851.90 0.1818138
852.00 0.1817401
852.10 0.1816664
852.20 0.1815927
852.30 0.1815191
852.40 0.1814455
852.50 0.1813719
852.60 0.1812984
852.70 0.1812248
852.80 0.1811513
852.90 0.1810778
853.00 0.1810044
853.10 0.180931
853.20 0.1808576
853.30 0.1807843
853.40 0.180711
853.50 0.1806376
853.60 0.1805644
853.70 0.1804917
853.80 0.1804194
853.90 0.1803472
854.00 0.1802751
854.10 0.1802029
854.20 0.1801308
854.30 0.1800588
854.40 0.1799868
854.50 0.1799147
854.60 0.1798428
854.70 0.1797708
854.80 0.1796989
854.90 0.179627
855.00 0.1795551
855.10 0.1794832
855.20 0.1794114
855.30 0.1793396
855.40 0.1792679
855.50 0.1791961
855.60 0.1791244
855.70 0.1790528
855.80 0.1789811
855.90 0.1789095
856.00 0.1788379
856.10 0.1787664
856.20 0.1786949
856.30 0.1786234
856.40 0.1785519
856.50 0.1784805
856.60 0.1784091
856.70 0.1783377
856.80 0.1782663
856.90 0.1781949
857.00 0.1781236
857.10 0.1780524
857.20 0.1779811
857.30 0.1779099
857.40 0.1778387
857.50 0.1777676
857.60 0.1776965
857.70 0.1776254
857.80 0.1775542
857.90 0.1774832
858.00 0.1774122
858.10 0.1773412
858.20 0.1772703
858.30 0.1771994
858.40 0.1771284
858.50 0.1770575
858.60 0.1769867
858.70 0.1769159
858.80 0.1768452
858.90 0.1767743
859.00 0.1767036
859.10 0.1766329
859.20 0.1765623
859.30 0.1764915
859.40 0.1764209
859.50 0.1763504
859.60 0.1762798
859.70 0.1762092
859.80 0.1761387
859.90 0.1760683
860.00 0.1759978
860.10 0.1759274
860.20 0.175857
860.30 0.1757867
860.40 0.1757163
860.50 0.175646
860.60 0.1755757
860.70 0.1755054
860.80 0.1754352
860.90 0.175365
861.00 0.1752948
861.10 0.1752247
861.20 0.1751545
861.30 0.1750845
861.40 0.1750144
861.50 0.1749443
861.60 0.1748744
861.70 0.1748043
861.80 0.1747344
861.90 0.1746645
862.00 0.1745946
862.10 0.1745248
862.20 0.1744549
862.30 0.1743854
862.40 0.1743159
862.50 0.1742465
862.60 0.174177
862.70 0.1741077
862.80 0.1740382
862.90 0.1739689
863.00 0.1738996
863.10 0.1738302
863.20 0.173761
863.30 0.1736917
863.40 0.1736225
863.50 0.1735533
863.60 0.1734841
863.70 0.173415
863.80 0.1733459
863.90 0.1732769
864.00 0.1732078
864.10 0.1731387
864.20 0.1730698
864.30 0.1730008
864.40 0.1729318
864.50 0.172863
864.60 0.172794
864.70 0.1727251
864.80 0.1726564
864.90 0.1725875
865.00 0.1725187
865.10 0.17245
865.20 0.1723813
865.30 0.1723125
865.40 0.1722439
865.50 0.1721753
865.60 0.1721066
865.70 0.172038
865.80 0.1719695
865.90 0.171901
866.00 0.1718324
866.10 0.1717639
866.20 0.1716955
866.30 0.1716271
866.40 0.1715587
866.50 0.1714903
866.60 0.1714219
866.70 0.1713537
866.80 0.1712854
866.90 0.1712171
867.00 0.1711488
867.10 0.1710806
867.20 0.1710125
867.30 0.1709443
867.40 0.1708762
867.50 0.170808
867.60 0.1707399
867.70 0.1706719
867.80 0.1706038
867.90 0.1705359
868.00 0.1704679
868.10 0.1704
868.20 0.1703321
868.30 0.1702642
868.40 0.1701963
868.50 0.1701284
868.60 0.1700606
868.70 0.1699928
868.80 0.1699251
868.90 0.1698573
869.00 0.1697896
869.10 0.169722
869.20 0.1696544
869.30 0.1695868
869.40 0.1695192
869.50 0.1694516
869.60 0.169384
869.70 0.1693165
869.80 0.169249
869.90 0.1691816
870.00 0.1691141
870.10 0.1690467
870.20 0.1689793
870.30 0.168912
870.40 0.1688447
870.50 0.1687774
870.60 0.16871
870.70 0.1686427
870.80 0.1685755
870.90 0.1685092
871.00 0.168443
871.10 0.1683768
871.20 0.1683105
871.30 0.1682444
871.40 0.1681782
871.50 0.168112
871.60 0.168046
871.70 0.1679799
871.80 0.1679138
871.90 0.1678479
872.00 0.1677819
872.10 0.1677159
872.20 0.16765
872.30 0.167584
872.40 0.1675181
872.50 0.1674523
872.60 0.1673864
872.70 0.1673206
872.80 0.1672549
872.90 0.1671891
873.00 0.1671234
873.10 0.1670576
873.20 0.166992
873.30 0.1669263
873.40 0.1668607
873.50 0.1667951
873.60 0.1667295
873.70 0.166664
873.80 0.1665984
873.90 0.1665329
874.00 0.1664674
874.10 0.166402
874.20 0.1663365
874.30 0.1662712
874.40 0.1662058
874.50 0.1661405
874.60 0.1660751
874.70 0.1660098
874.80 0.1659445
874.90 0.1658793
875.00 0.1658141
875.10 0.1657489
875.20 0.1656837
875.30 0.1656186
875.40 0.1655534
875.50 0.1654883
875.60 0.1654233
875.70 0.1653582
875.80 0.1652933
875.90 0.1652282
876.00 0.1651632
876.10 0.1650983
876.20 0.1650334
876.30 0.1649685
876.40 0.1649036
876.50 0.1648388
876.60 0.164774
876.70 0.1647092
876.80 0.1646444
876.90 0.1645797
877.00 0.164515
877.10 0.1644503
877.20 0.1643856
877.30 0.164321
877.40 0.1642564
877.50 0.1641918
877.60 0.1641272
877.70 0.1640626
877.80 0.1639982
877.90 0.1639337
878.00 0.1638692
878.10 0.1638048
878.20 0.1637404
878.30 0.163676
878.40 0.1636116
878.50 0.1635473
878.60 0.163483
878.70 0.1634187
878.80 0.1633544
878.90 0.1632902
879.00 0.163226
879.10 0.1631618
879.20 0.1630976
879.30 0.1630334
879.40 0.1629694
879.50 0.1629053
879.60 0.1628415
879.70 0.1627777
879.80 0.1627139
879.90 0.1626502
880.00 0.1625865
880.10 0.1625229
880.20 0.1624593
880.30 0.1623956
880.40 0.162332
880.50 0.1622685
880.60 0.1622049
880.70 0.1621414
880.80 0.1620779
880.90 0.1620144
881.00 0.161951
881.10 0.1618875
881.20 0.1618241
881.30 0.1617608
881.40 0.1616974
881.50 0.1616341
881.60 0.1615708
881.70 0.1615075
881.80 0.1614443
881.90 0.161381
882.00 0.1613178
882.10 0.1612547
882.20 0.1611915
882.30 0.1611284
882.40 0.1610653
882.50 0.1610022
882.60 0.1609392
882.70 0.1608762
882.80 0.1608132
882.90 0.1607502
883.00 0.1606872
883.10 0.1606243
883.20 0.1605614
883.30 0.1604985
883.40 0.1604356
883.50 0.1603728
883.60 0.16031
883.70 0.1602472
883.80 0.1601844
883.90 0.1601217
884.00 0.160059
884.10 0.1599963
884.20 0.1599336
884.30 0.1598709
884.40 0.1598083
884.50 0.1597458
884.60 0.1596832
884.70 0.1596207
884.80 0.1595582
884.90 0.1594956
885.00 0.1594331
885.10 0.1593707
885.20 0.1593083
885.30 0.1592459
885.40 0.1591834
885.50 0.1591211
885.60 0.1590588
885.70 0.1589965
885.80 0.1589342
885.90 0.1588719
886.00 0.1588097
886.10 0.1587475
886.20 0.1586853
886.30 0.1586231
886.40 0.158561
886.50 0.1584989
886.60 0.1584368
886.70 0.1583747
886.80 0.1583127
886.90 0.1582507
887.00 0.1581887
887.10 0.1581267
887.20 0.1580648
887.30 0.1580028
887.40 0.1579409
887.50 0.1578791
887.60 0.1578172
887.70 0.1577554
887.80 0.1576936
887.90 0.1576318
888.00 0.1575701
888.10 0.1575084
888.20 0.1574466
888.30 0.1573849
888.40 0.157324
888.50 0.1572633
888.60 0.1572025
888.70 0.1571417
888.80 0.1570811
888.90 0.1570204
889.00 0.1569598
889.10 0.1568991
889.20 0.1568385
889.30 0.156778
889.40 0.1567174
889.50 0.1566568
889.60 0.1565963
889.70 0.1565358
889.80 0.1564754
889.90 0.1564149
890.00 0.1563545
890.10 0.156294
890.20 0.1562337
890.30 0.1561734
890.40 0.156113
890.50 0.1560528
890.60 0.1559925
890.70 0.1559322
890.80 0.155872
890.90 0.1558118
891.00 0.1557515
891.10 0.1556913
891.20 0.1556313
891.30 0.1555711
891.40 0.155511
891.50 0.1554509
891.60 0.1553909
891.70 0.1553309
891.80 0.1552709
891.90 0.1552109
892.00 0.155151
892.10 0.155091
892.20 0.1550311
892.30 0.1549712
892.40 0.1549113
892.50 0.1548515
892.60 0.1547917
892.70 0.1547319
892.80 0.1546721
892.90 0.1546123
893.00 0.1545526
893.10 0.1544929
893.20 0.1544332
893.30 0.1543736
893.40 0.1543139
893.50 0.1542543
893.60 0.1541947
893.70 0.1541351
893.80 0.1540756
893.90 0.1540161
894.00 0.1539566
894.10 0.1538971
894.20 0.1538376
894.30 0.1537782
894.40 0.1537188
894.50 0.1536594
894.60 0.1536
894.70 0.1535406
894.80 0.1534813
894.90 0.153422
895.00 0.1533628
895.10 0.1533036
895.20 0.1532443
895.30 0.1531851
895.40 0.1531259
895.50 0.1530668
895.60 0.1530076
895.70 0.1529485
895.80 0.1528894
895.90 0.1528304
896.00 0.1527713
896.10 0.1527123
896.20 0.1526533
896.30 0.1525943
896.40 0.1525353
896.50 0.1524764
896.60 0.1524175
896.70 0.1523586
896.80 0.1522997
896.90 0.1522409
897.00 0.1521821
897.10 0.1521232
897.20 0.1520644
897.30 0.1520059
897.40 0.1519475
897.50 0.151889
897.60 0.1518306
897.70 0.1517722
897.80 0.1517138
897.90 0.1516553
898.00 0.151597
898.10 0.1515387
898.20 0.1514804
898.30 0.1514221
898.40 0.1513639
898.50 0.1513055
898.60 0.1512473
898.70 0.1511892
898.80 0.151131
898.90 0.1510729
899.00 0.1510147
899.10 0.1509566
899.20 0.1508985
899.30 0.1508405
899.40 0.1507824
899.50 0.1507244
899.60 0.1506664
899.70 0.1506084
899.80 0.1505504
899.90 0.1504925
900.00 0.1504346
900.10 0.1503767
900.20 0.1503188
900.30 0.150261
900.40 0.1502032
900.50 0.1501453
900.60 0.1500876
900.70 0.1500299
900.80 0.1499721
900.90 0.1499144
901.00 0.1498567
901.10 0.1497991
901.20 0.1497414
901.30 0.1496838
901.40 0.1496262
901.50 0.1495685
901.60 0.149511
901.70 0.1494534
901.80 0.1493959
901.90 0.1493385
902.00 0.1492809
902.10 0.1492235
902.20 0.1491661
902.30 0.1491087
902.40 0.1490513
902.50 0.1489939
902.60 0.1489366
902.70 0.1488793
902.80 0.148822
902.90 0.1487647
903.00 0.1487074
903.10 0.1486502
903.20 0.1485931
903.30 0.1485358
903.40 0.1484787
903.50 0.1484215
903.60 0.1483644
903.70 0.1483073
903.80 0.1482502
903.90 0.1481931
904.00 0.1481361
904.10 0.148079
904.20 0.1480221
904.30 0.1479651
904.40 0.1479082
904.50 0.1478512
904.60 0.1477943
904.70 0.1477374
904.80 0.1476806
904.90 0.1476237
905.00 0.1475669
905.10 0.1475101
905.20 0.1474533
905.30 0.1473965
905.40 0.1473399
905.50 0.1472831
905.60 0.1472265
905.70 0.1471697
905.80 0.1471131
905.90 0.1470565
906.00 0.1469998
906.10 0.1469433
906.20 0.146887
906.30 0.1468312
906.40 0.1467755
906.50 0.1467199
906.60 0.1466642
906.70 0.1466085
906.80 0.1465528
906.90 0.1464972
907.00 0.1464417
907.10 0.1463861
907.20 0.1463306
907.30 0.146275
907.40 0.1462195
907.50 0.146164
907.60 0.1461086
907.70 0.1460532
907.80 0.1459977
907.90 0.1459423
908.00 0.1458869
908.10 0.1458315
908.20 0.1457762
908.30 0.145721
908.40 0.1456657
908.50 0.1456104
908.60 0.1455551
908.70 0.1454999
908.80 0.1454446
908.90 0.1453894
909.00 0.1453343
909.10 0.1452791
909.20 0.145224
909.30 0.1451689
909.40 0.1451138
909.50 0.1450588
909.60 0.1450037
909.70 0.1449487
909.80 0.1448937
909.90 0.1448387
910.00 0.1447837
910.10 0.1447288
910.20 0.1446739
910.30 0.144619
910.40 0.1445641
910.50 0.1445092
910.60 0.1444544
910.70 0.1443996
910.80 0.1443448
910.90 0.14429
911.00 0.1442352
911.10 0.1441805
911.20 0.1441258
911.30 0.1440711
911.40 0.1440164
911.50 0.1439618
911.60 0.1439071
911.70 0.1438525
911.80 0.1437979
911.90 0.1437433
912.00 0.1436887
912.10 0.1436342
912.20 0.1435797
912.30 0.1435252
912.40 0.1434707
912.50 0.1434163
912.60 0.1433619
912.70 0.1433075
912.80 0.1432531
912.90 0.1431987
913.00 0.1431443
913.10 0.14309
913.20 0.1430357
913.30 0.1429814
913.40 0.1429272
913.50 0.1428729
913.60 0.1428187
913.70 0.1427645
913.80 0.1427103
913.90 0.1426561
914.00 0.142602
914.10 0.1425479
914.20 0.1424938
914.30 0.1424397
914.40 0.1423856
914.50 0.1423315
914.60 0.1422775
914.70 0.1422235
914.80 0.1421696
914.90 0.1421155
915.00 0.1420616
915.10 0.1420077
915.20 0.1419538
915.30 0.1418997
915.40 0.1418455
915.50 0.1417913
915.60 0.1417372
915.70 0.1416831
915.80 0.141629
915.90 0.1415749
916.00 0.1415208
916.10 0.1414667
916.20 0.1414127
916.30 0.1413587
916.40 0.1413048
916.50 0.1412507
916.60 0.1411968
916.70 0.1411429
916.80 0.141089
916.90 0.1410351
917.00 0.1409812
917.10 0.1409274
917.20 0.1408736
917.30 0.1408198
917.40 0.1407659
917.50 0.1407122
917.60 0.1406585
917.70 0.1406048
917.80 0.140551
917.90 0.1404973
918.00 0.1404437
918.10 0.1403901
918.20 0.1403364
918.30 0.1402828
918.40 0.1402292
918.50 0.1401756
918.60 0.1401221
918.70 0.1400686
918.80 0.140015
918.90 0.1399616
919.00 0.1399081
919.10 0.1398547
919.20 0.1398012
919.30 0.1397479
919.40 0.1396944
919.50 0.1396411
919.60 0.1395878
919.70 0.1395344
919.80 0.1394811
919.90 0.1394288
920.00 0.1393767
920.10 0.1393245
920.20 0.1392725
920.30 0.1392203
920.40 0.1391682
920.50 0.1391162
920.60 0.1390641
920.70 0.139012
920.80 0.13896
920.90 0.138908
921.00 0.138856
921.10 0.1388041
921.20 0.1387521
921.30 0.1387002
921.40 0.1386484
921.50 0.1385964
921.60 0.1385445
921.70 0.1384927
921.80 0.1384409
921.90 0.1383891
922.00 0.1383373
922.10 0.1382856
922.20 0.1382338
922.30 0.138182
922.40 0.1381303
922.50 0.1380787
922.60 0.138027
922.70 0.1379753
922.80 0.1379237
922.90 0.1378721
923.00 0.1378205
923.10 0.1377689
923.20 0.1377173
923.30 0.1376659
923.40 0.1376143
923.50 0.1375628
923.60 0.1375113
923.70 0.1374598
923.80 0.1374085
923.90 0.137357
924.00 0.1373056
924.10 0.1372542
924.20 0.1372028
924.30 0.1371514
924.40 0.1371001
924.50 0.1370485
924.60 0.1369968
924.70 0.1369452
924.80 0.1368937
924.90 0.1368422
925.00 0.1367906
925.10 0.1367391
925.20 0.1366875
925.30 0.1366361
925.40 0.1365847
925.50 0.1365332
925.60 0.1364818
925.70 0.1364304
925.80 0.1363791
925.90 0.1363277
926.00 0.1362763
926.10 0.136225
926.20 0.1361736
926.30 0.1361223
926.40 0.1360712
926.50 0.1360199
926.60 0.1359687
926.70 0.1359174
926.80 0.1358662
926.90 0.135815
927.00 0.1357639
927.10 0.1357128
927.20 0.1356617
927.30 0.1356106
927.40 0.1355595
927.50 0.1355084
927.60 0.1354574
927.70 0.1354063
927.80 0.1353553
927.90 0.1353043
928.00 0.1352535
928.10 0.1352025
928.20 0.1351516
928.30 0.1351007
928.40 0.1350498
928.50 0.1349989
928.60 0.134948
928.70 0.1348972
928.80 0.1348464
928.90 0.1347956
929.00 0.1347448
929.10 0.1346945
929.20 0.1346443
929.30 0.1345942
929.40 0.134544
929.50 0.1344938
929.60 0.1344437
929.70 0.1343935
929.80 0.1343434
929.90 0.1342934
930.00 0.1342433
930.10 0.1341933
930.20 0.1341433
930.30 0.1340933
930.40 0.1340432
930.50 0.1339932
930.60 0.1339433
930.70 0.1338934
930.80 0.1338435
930.90 0.1337936
931.00 0.1337437
931.10 0.1336938
931.20 0.133644
931.30 0.1335942
931.40 0.1335444
931.50 0.1334946
931.60 0.1334448
931.70 0.1333951
931.80 0.1333453
931.90 0.1332957
932.00 0.133246
932.10 0.1331962
932.20 0.1331466
932.30 0.133097
932.40 0.1330474
932.50 0.1329977
932.60 0.1329481
932.70 0.1328986
932.80 0.1328491
932.90 0.1327995
933.00 0.13275
933.10 0.1327005
933.20 0.1326511
933.30 0.1326015
933.40 0.1325521
933.50 0.1325027
933.60 0.1324532
933.70 0.132404
933.80 0.1323549
933.90 0.1323057
934.00 0.1322566
934.10 0.1322075
934.20 0.1321584
934.30 0.1321094
934.40 0.1320603
934.50 0.1320112
934.60 0.1319623
934.70 0.1319133
934.80 0.1318643
934.90 0.1318153
935.00 0.1317663
935.10 0.1317174
935.20 0.1316686
935.30 0.1316196
935.40 0.1315708
935.50 0.1315219
935.60 0.1314731
935.70 0.1314242
935.80 0.1313754
935.90 0.1313267
936.00 0.1312779
936.10 0.1312292
936.20 0.1311804
936.30 0.1311317
936.40 0.131083
936.50 0.1310343
936.60 0.1309856
936.70 0.130937
936.80 0.1308885
936.90 0.1308398
937.00 0.1307913
937.10 0.1307426
937.20 0.1306941
937.30 0.1306455
937.40 0.1305971
937.50 0.1305485
937.60 0.1305001
937.70 0.1304516
937.80 0.1304032
937.90 0.1303547
938.00 0.1303063
938.10 0.1302579
938.20 0.1302095
938.30 0.1301612
938.40 0.1301128
938.50 0.1300645
938.60 0.1300162
938.70 0.1299679
938.80 0.1299196
938.90 0.1298714
939.00 0.1298232
939.10 0.129775
939.20 0.1297268
939.30 0.1296785
939.40 0.1296304
939.50 0.1295822
939.60 0.1295342
939.70 0.129486
939.80 0.1294379
939.90 0.1293899
940.00 0.1293418
940.10 0.1292938
940.20 0.1292457
940.30 0.1291977
940.40 0.1291497
940.50 0.1291017
940.60 0.1290538
940.70 0.1290059
940.80 0.1289579
940.90 0.1289101
941.00 0.1288622
941.10 0.1288143
941.20 0.1287665
941.30 0.1287186
941.40 0.1286708
941.50 0.128623
941.60 0.1285752
941.70 0.1285274
941.80 0.1284797
941.90 0.128432
942.00 0.1283842
942.10 0.1283366
942.20 0.1282889
942.30 0.1282412
942.40 0.1281936
942.50 0.128146
942.60 0.1280984
942.70 0.1280508
942.80 0.1280033
942.90 0.1279557
943.00 0.1279083
943.10 0.1278612
943.20 0.1278141
943.30 0.1277672
943.40 0.1277202
943.50 0.1276732
943.60 0.1276262
943.70 0.1275792
943.80 0.1275322
943.90 0.1274853
944.00 0.1274385
944.10 0.1273916
944.20 0.1273447
944.30 0.1272978
944.40 0.127251
944.50 0.1272041
944.60 0.1271573
944.70 0.1271105
944.80 0.1270637
944.90 0.127017
945.00 0.1269703
945.10 0.1269236
945.20 0.1268769
945.30 0.1268302
945.40 0.1267835
945.50 0.1267368
945.60 0.1266902
945.70 0.1266435
945.80 0.1265969
945.90 0.1265503
946.00 0.1265038
946.10 0.1264572
946.20 0.1264107
946.30 0.1263641
946.40 0.1263176
946.50 0.1262711
946.60 0.1262247
946.70 0.1261782
946.80 0.1261318
946.90 0.1260854
947.00 0.126039
947.10 0.1259926
947.20 0.1259462
947.30 0.1258998
947.40 0.1258535
947.50 0.1258072
947.60 0.1257609
947.70 0.1257146
947.80 0.1256683
947.90 0.1256221
948.00 0.1255759
948.10 0.1255296
948.20 0.1254834
948.30 0.1254373
948.40 0.1253911
948.50 0.125345
948.60 0.1252988
948.70 0.1252527
948.80 0.1252066
948.90 0.1251605
949.00 0.1251145
949.10 0.1250684
949.20 0.1250223
949.30 0.1249763
949.40 0.1249303
949.50 0.1248843
949.60 0.1248384
949.70 0.1247924
949.80 0.1247465
949.90 0.1247006
950.00 0.1246547
950.10 0.1246088
950.20 0.1245629
950.30 0.124517
950.40 0.1244712
950.50 0.1244254
950.60 0.1243796
950.70 0.1243338
950.80 0.1242881
950.90 0.1242422
951.00 0.1241965
951.10 0.1241508
951.20 0.1241051
951.30 0.1240595
951.40 0.1240138
951.50 0.1239681
951.60 0.1239224
951.70 0.1238768
951.80 0.1238312
951.90 0.1237857
952.00 0.1237401
952.10 0.1236945
952.20 0.123649
952.30 0.1236035
952.40 0.123558
952.50 0.1235123
952.60 0.1234668
952.70 0.1234214
952.80 0.1233759
952.90 0.1233304
953.00 0.1232849
953.10 0.1232395
953.20 0.1231941
953.30 0.1231487
953.40 0.1231032
953.50 0.1230578
953.60 0.1230125
953.70 0.1229672
953.80 0.1229219
953.90 0.1228765
954.00 0.1228312
954.10 0.122786
954.20 0.1227406
954.30 0.1226954
954.40 0.1226502
954.50 0.122605
954.60 0.1225597
954.70 0.1225146
954.80 0.1224694
954.90 0.1224242
955.00 0.1223791
955.10 0.122334
955.20 0.1222889
955.30 0.1222438
955.40 0.1221987
955.50 0.1221537
955.60 0.1221086
955.70 0.1220636
955.80 0.1220187
955.90 0.1219736
956.00 0.1219287
956.10 0.1218837
956.20 0.1218387
956.30 0.1217938
956.40 0.121749
956.50 0.121704
956.60 0.1216592
956.70 0.1216143
956.80 0.1215694
956.90 0.1215246
957.00 0.1214798
957.10 0.121435
957.20 0.1213905
957.30 0.1213462
957.40 0.121302
957.50 0.1212577
957.60 0.1212135
957.70 0.1211692
957.80 0.1211251
957.90 0.1210808
958.00 0.1210367
958.10 0.1209925
958.20 0.1209483
958.30 0.1209043
958.40 0.1208601
958.50 0.1208161
958.60 0.120772
958.70 0.120728
958.80 0.1206839
958.90 0.1206399
959.00 0.1205958
959.10 0.1205518
959.20 0.1205079
959.30 0.1204639
959.40 0.12042
959.50 0.120376
959.60 0.1203322
959.70 0.1202882
959.80 0.1202443
959.90 0.1202005
960.00 0.1201566
960.10 0.1201128
960.20 0.120069
960.30 0.1200251
960.40 0.1199814
960.50 0.1199376
960.60 0.1198938
960.70 0.1198501
960.80 0.1198063
960.90 0.1197627
961.00 0.1197189
961.10 0.1196752
961.20 0.1196316
961.30 0.1195879
961.40 0.1195443
961.50 0.1195007
961.60 0.1194571
961.70 0.1194134
961.80 0.1193699
961.90 0.1193264
962.00 0.1192831
962.10 0.1192401
962.20 0.119197
962.30 0.1191539
962.40 0.1191108
962.50 0.1190678
962.60 0.1190248
962.70 0.1189818
962.80 0.1189388
962.90 0.1188958
963.00 0.1188528
963.10 0.1188099
963.20 0.118767
963.30 0.118724
963.40 0.1186811
963.50 0.1186382
963.60 0.1185953
963.70 0.1185525
963.80 0.1185097
963.90 0.1184668
964.00 0.118424
964.10 0.1183812
964.20 0.1183384
964.30 0.1182956
964.40 0.1182529
964.50 0.1182102
964.60 0.1181675
964.70 0.1181247
964.80 0.118082
964.90 0.1180393
965.00 0.1179967
965.10 0.117954
965.20 0.1179115
965.30 0.1178688
965.40 0.1178262
965.50 0.1177836
965.60 0.1177411
965.70 0.1176985
965.80 0.1176559
965.90 0.1176134
966.00 0.1175709
966.10 0.1175284
966.20 0.1174859
966.30 0.1174435
966.40 0.1174011
966.50 0.1173586
966.60 0.1173162
966.70 0.1172738
966.80 0.1172314
966.90 0.117189
967.00 0.1171467
967.10 0.1171043
967.20 0.117062
967.30 0.1170197
967.40 0.1169774
967.50 0.1169351
967.60 0.1168928
967.70 0.1168505
967.80 0.1168083
967.90 0.1167661
968.00 0.1167239
968.10 0.1166817
968.20 0.1166395
968.30 0.1165973
968.40 0.1165552
968.50 0.116513
968.60 0.1164709
968.70 0.1164288
968.80 0.1163867
968.90 0.1163447
969.00 0.1163026
969.10 0.1162606
969.20 0.1162185
969.30 0.1161765
969.40 0.1161345
969.50 0.1160925
969.60 0.1160506
969.70 0.1160086
969.80 0.1159667
969.90 0.1159248
970.00 0.1158829
970.10 0.1158409
970.20 0.115799
970.30 0.1157571
970.40 0.1157153
970.50 0.1156735
970.60 0.1156316
970.70 0.1155898
970.80 0.1155481
970.90 0.1155063
971.00 0.1154645
971.10 0.1154228
971.20 0.1153811
971.30 0.1153393
971.40 0.1152976
971.50 0.1152559
971.60 0.1152143
971.70 0.1151729
971.80 0.1151314
971.90 0.11509
972.00 0.1150485
972.10 0.115007
972.20 0.1149657
972.30 0.1149243
972.40 0.1148829
972.50 0.1148415
972.60 0.1148001
972.70 0.1147588
972.80 0.1147175
972.90 0.1146762
973.00 0.1146348
973.10 0.1145936
973.20 0.1145523
973.30 0.1145111
973.40 0.1144699
973.50 0.1144286
973.60 0.1143874
973.70 0.1143463
973.80 0.1143051
973.90 0.1142639
974.00 0.1142227
974.10 0.1141816
974.20 0.1141405
974.30 0.1140994
974.40 0.1140583
974.50 0.1140172
974.60 0.1139762
974.70 0.1139351
974.80 0.1138941
974.90 0.1138531
975.00 0.1138121
975.10 0.113771
975.20 0.1137301
975.30 0.1136892
975.40 0.1136481
975.50 0.1136072
975.60 0.1135664
975.70 0.1135255
975.80 0.1134845
975.90 0.1134437
976.00 0.1134028
976.10 0.1133619
976.20 0.1133211
976.30 0.1132804
976.40 0.1132395
976.50 0.1131987
976.60 0.113158
976.70 0.1131172
976.80 0.1130764
976.90 0.1130357
977.00 0.112995
977.10 0.1129543
977.20 0.1129136
977.30 0.1128729
977.40 0.1128323
977.50 0.1127917
977.60 0.112751
977.70 0.1127104
977.80 0.1126697
977.90 0.1126292
978.00 0.1125886
978.10 0.112548
978.20 0.1125075
978.30 0.112467
978.40 0.1124264
978.50 0.112386
978.60 0.1123454
978.70 0.112305
978.80 0.1122646
978.90 0.1122241
979.00 0.1121837
979.10 0.1121432
979.20 0.1121028
979.30 0.1120624
979.40 0.1120221
979.50 0.1119817
979.60 0.1119413
979.70 0.1119011
979.80 0.1118607
979.90 0.1118204
980.00 0.1117801
980.10 0.1117398
980.20 0.1116995
980.30 0.1116593
980.40 0.1116191
980.50 0.1115789
980.60 0.1115387
980.70 0.1114985
980.80 0.1114583
980.90 0.1114181
981.00 0.111378
981.10 0.1113378
981.20 0.1112977
981.30 0.1112577
981.40 0.1112178
981.50 0.1111779
981.60 0.111138
981.70 0.1110981
981.80 0.1110583
981.90 0.1110184
982.00 0.1109785
982.10 0.1109387
982.20 0.1108989
982.30 0.1108592
982.40 0.1108193
982.50 0.1107796
982.60 0.1107398
982.70 0.1107
982.80 0.1106604
982.90 0.1106206
983.00 0.110581
983.10 0.1105413
983.20 0.1105017
983.30 0.110462
983.40 0.1104223
983.50 0.1103827
983.60 0.1103431
983.70 0.1103035
983.80 0.1102639
983.90 0.1102243
984.00 0.1101848
984.10 0.1101452
984.20 0.1101056
984.30 0.1100662
984.40 0.1100266
984.50 0.1099872
984.60 0.1099477
984.70 0.1099082
984.80 0.1098688
984.90 0.1098293
985.00 0.1097899
985.10 0.1097506
985.20 0.1097111
985.30 0.1096717
985.40 0.1096324
985.50 0.109593
985.60 0.1095537
985.70 0.1095144
985.80 0.1094751
985.90 0.1094357
986.00 0.1093965
986.10 0.1093572
986.20 0.1093179
986.30 0.1092787
986.40 0.1092395
986.50 0.1092002
986.60 0.109161
986.70 0.1091219
986.80 0.1090827
986.90 0.1090435
987.00 0.1090044
987.10 0.1089653
987.20 0.1089261
987.30 0.108887
987.40 0.108848
987.50 0.1088089
987.60 0.1087698
987.70 0.1087307
987.80 0.1086917
987.90 0.1086527
988.00 0.1086136
988.10 0.1085746
988.20 0.1085357
988.30 0.1084967
988.40 0.1084577
988.50 0.1084188
988.60 0.1083799
988.70 0.108341
988.80 0.108302
988.90 0.1082631
989.00 0.1082243
989.10 0.1081855
989.20 0.1081466
989.30 0.1081077
989.40 0.1080689
989.50 0.1080302
989.60 0.1079913
989.70 0.1079525
989.80 0.1079138
989.90 0.107875
990.00 0.1078363
990.10 0.1077976
990.20 0.1077588
990.30 0.1077201
990.40 0.1076814
990.50 0.1076427
990.60 0.1076042
990.70 0.1075655
990.80 0.1075268
990.90 0.1074882
991.00 0.1074496
991.10 0.1074113
991.20 0.1073735
991.30 0.1073358
991.40 0.107298
991.50 0.1072603
991.60 0.1072226
991.70 0.1071849
991.80 0.1071473
991.90 0.1071096
992.00 0.1070719
992.10 0.1070343
992.20 0.1069967
992.30 0.1069591
992.40 0.1069214
992.50 0.1068838
992.60 0.1068462
992.70 0.1068087
992.80 0.1067711
992.90 0.1067336
993.00 0.1066961
993.10 0.1066586
993.20 0.1066211
993.30 0.1065836
993.40 0.106546
993.50 0.1065086
993.60 0.1064711
993.70 0.1064337
993.80 0.1063963
993.90 0.1063589
994.00 0.1063215
994.10 0.1062841
994.20 0.1062467
994.30 0.1062093
994.40 0.106172
994.50 0.1061347
994.60 0.1060974
994.70 0.1060601
994.80 0.1060228
994.90 0.1059854
995.00 0.1059482
995.10 0.1059109
995.20 0.1058737
995.30 0.1058365
995.40 0.1057993
995.50 0.105762
995.60 0.1057248
995.70 0.1056877
995.80 0.1056505
995.90 0.1056134
996.00 0.1055762
996.10 0.1055387
996.20 0.1055012
996.30 0.1054636
996.40 0.1054261
996.50 0.1053886
996.60 0.1053512
996.70 0.1053137
996.80 0.1052762
996.90 0.1052387
997.00 0.1052013
997.10 0.1051638
997.20 0.1051264
997.30 0.1050891
997.40 0.1050517
997.50 0.1050143
997.60 0.1049769
997.70 0.1049395
997.80 0.1049022
997.90 0.1048649
998.00 0.1048276
998.10 0.1047903
998.20 0.1047531
998.30 0.1047157
998.40 0.1046785
998.50 0.1046412
998.60 0.104604
998.70 0.1045668
998.80 0.1045296
998.90 0.1044923
999.00 0.1044552
999.10 0.104418
999.20 0.1043809
999.30 0.1043438
999.40 0.1043065
999.50 0.1042694
999.60 0.1042324
999.70 0.1041953
999.80 0.1041582
999.90 0.1041211
1000.00 0.104084
1000.10 0.104047
1000.20 0.10401
1000.30 0.103973
1000.40 0.1039359
1000.50 0.103899
1000.60 0.103862
1000.70 0.1038251
1000.80 0.103788
1000.90 0.1037511
1001.00 0.1037143
1001.10 0.1036775
1001.20 0.1036407
1001.30 0.103604
1001.40 0.1035673
1001.50 0.1035305
1001.60 0.1034939
1001.70 0.1034572
1001.80 0.1034206
1001.90 0.1033839
1002.00 0.1033472
1002.10 0.1033106
1002.20 0.103274
1002.30 0.1032374
1002.40 0.1032008
1002.50 0.1031642
1002.60 0.1031276
1002.70 0.1030911
1002.80 0.1030545
1002.90 0.103018
1003.00 0.1029815
1003.10 0.102945
1003.20 0.1029085
1003.30 0.1028721
1003.40 0.1028355
1003.50 0.1027991
1003.60 0.1027627
1003.70 0.1027262
1003.80 0.1026898
1003.90 0.1026533
1004.00 0.102617
1004.10 0.1025806
1004.20 0.1025442
1004.30 0.1025079
1004.40 0.1024716
1004.50 0.1024352
1004.60 0.1023989
1004.70 0.1023625
1004.80 0.1023263
1004.90 0.1022901
1005.00 0.1022537
1005.10 0.1022175
1005.20 0.1021812
1005.30 0.102145
1005.40 0.1021088
1005.50 0.1020726
1005.60 0.1020364
1005.70 0.1020002
1005.80 0.101964
1005.90 0.1019278
1006.00 0.1018918
1006.10 0.1018561
1006.20 0.1018204
1006.30 0.1017847
1006.40 0.101749
1006.50 0.1017133
1006.60 0.1016777
1006.70 0.101642
1006.80 0.1016064
1006.90 0.1015708
1007.00 0.1015352
1007.10 0.1014996
1007.20 0.101464
1007.30 0.1014284
1007.40 0.1013928
1007.50 0.1013573
1007.60 0.1013218
1007.70 0.1012863
1007.80 0.1012508
1007.90 0.1012152
1008.00 0.1011798
1008.10 0.1011443
1008.20 0.1011089
1008.30 0.1010734
1008.40 0.1010379
1008.50 0.1010025
1008.60 0.1009671
1008.70 0.1009317
1008.80 0.1008963
1008.90 0.1008609
1009.00 0.1008256
1009.10 0.1007902
1009.20 0.1007549
1009.30 0.1007195
1009.40 0.1006842
1009.50 0.1006489
1009.60 0.1006136
1009.70 0.1005783
1009.80 0.1005431
1009.90 0.1005078
1010.00 0.1004726
1010.10 0.1004373
1010.20 0.1004021
1010.30 0.1003669
1010.40 0.1003317
1010.50 0.1002965
1010.60 0.1002614
1010.70 0.1002262
1010.80 0.100191
1010.90 0.1001559
1011.00 0.1001208
1011.10 0.1000858
1011.20 0.1000509
1011.30 0.1000159
1011.40 0.09998101
1011.50 0.09994604
1011.60 0.09991117
1011.70 0.09987629
1011.80 0.09984142
1011.90 0.09980655
1012.00 0.09977167
1012.10 0.0997368
1012.20 0.09970203
1012.30 0.09966715
1012.40 0.09963238
1012.50 0.0995976
1012.60 0.09956283
1012.70 0.09952805
1012.80 0.09949328
1012.90 0.0994585
1013.00 0.09942382
1013.10 0.09938905
1013.20 0.09935437
1013.30 0.09931969
1013.40 0.09928501
1013.50 0.09925034
1013.60 0.09921566
1013.70 0.09918098
1013.80 0.0991463
1013.90 0.09911172
1014.00 0.09907704
1014.10 0.09904246
1014.20 0.09900788
1014.30 0.0989733
1014.40 0.09893872
1014.50 0.09890414
1014.60 0.09886966
1014.70 0.09883508
1014.80 0.0988006
1014.90 0.09876602
1015.00 0.09873154
1015.10 0.09869705
1015.20 0.09866257
1015.30 0.09862809
1015.40 0.09859371
1015.50 0.09855922
1015.60 0.09852474
1015.70 0.09849036
1015.80 0.09845597
1015.90 0.09842159
1016.00 0.0983872
1016.10 0.09835282
1016.20 0.09831843
1016.30 0.09828405
1016.40 0.09824976
1016.50 0.09821538
1016.60 0.09818109
1016.70 0.0981468
1016.80 0.09811252
1016.90 0.09807823
1017.00 0.09804394
1017.10 0.09800975
1017.20 0.09797546
1017.30 0.09794118
1017.40 0.09790699
1017.50 0.0978728
1017.60 0.09783861
1017.70 0.09780442
1017.80 0.09777023
1017.90 0.09773604
1018.00 0.09770195
1018.10 0.09766777
1018.20 0.09763364
1018.30 0.09759952
1018.40 0.09756542
1018.50 0.09753132
1018.60 0.09749723
1018.70 0.09746316
1018.80 0.0974291
1018.90 0.09739505
1019.00 0.09736101
1019.10 0.09732699
1019.20 0.09729297
1019.30 0.09725896
1019.40 0.09722498
1019.50 0.097191
1019.60 0.09715702
1019.70 0.09712307
1019.80 0.09708912
1019.90 0.09705519
1020.00 0.09702126
1020.10 0.09698735
1020.20 0.09695345
1020.30 0.09691956
1020.40 0.09688568
1020.50 0.09685182
1020.60 0.09681796
1020.70 0.09678411
1020.80 0.09675029
1020.90 0.09671647
1021.00 0.09668266
1021.10 0.0966489
1021.20 0.09661566
1021.30 0.09658243
1021.40 0.0965492
1021.50 0.096516
1021.60 0.09648281
1021.70 0.09644962
1021.80 0.09641644
1021.90 0.09638329
1022.00 0.09635013
1022.10 0.09631699
1022.20 0.09628386
1022.30 0.09625074
1022.40 0.09621764
1022.50 0.09618454
1022.60 0.09615145
1022.70 0.09611839
1022.80 0.09608532
1022.90 0.09605227
1023.00 0.09601923
1023.10 0.0959862
1023.20 0.09595319
1023.30 0.09592018
1023.40 0.09588718
1023.50 0.09585419
1023.60 0.09582122
1023.70 0.09578826
1023.80 0.09575531
1023.90 0.09572237
1024.00 0.09568944
1024.10 0.09565652
1024.20 0.09562361
1024.30 0.09559071
1024.40 0.09555783
1024.50 0.09552495
1024.60 0.09549209
1024.70 0.09545924
1024.80 0.0954264
1024.90 0.09539357
1025.00 0.09536074
1025.10 0.09532793
1025.20 0.09529514
1025.30 0.09526236
1025.40 0.09522957
1025.50 0.09519681
1025.60 0.09516406
1025.70 0.09513131
1025.80 0.09509858
1025.90 0.09506587
1026.00 0.09503315
1026.10 0.09500046
1026.20 0.09496776
1026.30 0.09493469
1026.40 0.09490163
1026.50 0.09486857
1026.60 0.09483554
1026.70 0.0948025
1026.80 0.09476948
1026.90 0.09473648
1027.00 0.09470349
1027.10 0.0946705
1027.20 0.09463752
1027.30 0.09460456
1027.40 0.09457161
1027.50 0.09453867
1027.60 0.09450574
1027.70 0.09447282
1027.80 0.09443992
1027.90 0.09440702
1028.00 0.09437413
1028.10 0.09434126
1028.20 0.0943084
1028.30 0.09427554
1028.40 0.09424269
1028.50 0.09420986
1028.60 0.09417705
1028.70 0.09414424
1028.80 0.09411144
1028.90 0.09407865
1029.00 0.09404588
1029.10 0.09401312
1029.20 0.09398036
1029.30 0.09394762
1029.40 0.09391489
1029.50 0.09388216
1029.60 0.09384945
1029.70 0.09381675
1029.80 0.09378407
1029.90 0.09375138
1030.00 0.09371872
1030.10 0.09368606
1030.20 0.09365343
1030.30 0.09362079
1030.40 0.09358816
1030.50 0.09355556
1030.60 0.09352295
1030.70 0.09349036
1030.80 0.09345779
1030.90 0.09342522
1031.00 0.09339266
1031.10 0.09336011
1031.20 0.09332757
1031.30 0.09329505
1031.40 0.09326304
1031.50 0.09323107
1031.60 0.09319911
1031.70 0.09316717
1031.80 0.09313522
1031.90 0.09310329
1032.00 0.09307138
1032.10 0.09303946
1032.20 0.09300757
1032.30 0.09297569
1032.40 0.0929438
1032.50 0.09291194
1032.60 0.09288008
1032.70 0.09284824
1032.80 0.0928164
1032.90 0.09278458
1033.00 0.09275277
1033.10 0.09272097
1033.20 0.09268918
1033.30 0.09265739
1033.40 0.09262563
1033.50 0.09259386
1033.60 0.09256211
1033.70 0.09253038
1033.80 0.09249865
1033.90 0.09246693
1034.00 0.09243522
1034.10 0.09240352
1034.20 0.09237184
1034.30 0.09234017
1034.40 0.0923085
1034.50 0.09227685
1034.60 0.0922452
1034.70 0.09221357
1034.80 0.09218195
1034.90 0.09215034
1035.00 0.09211873
1035.10 0.09208714
1035.20 0.09205555
1035.30 0.09202398
1035.40 0.09199243
1035.50 0.09196088
1035.60 0.09192934
1035.70 0.0918978
1035.80 0.09186629
1035.90 0.09183478
1036.00 0.09180329
1036.10 0.0917718
1036.20 0.09174032
1036.30 0.09170885
1036.40 0.0916774
1036.50 0.09164596
1036.60 0.09161452
1036.70 0.09158309
1036.80 0.09155167
1036.90 0.09152027
1037.00 0.09148887
1037.10 0.09145749
1037.20 0.09142611
1037.30 0.09139474
1037.40 0.0913634
1037.50 0.09133205
1037.60 0.09130071
1037.70 0.09126939
1037.80 0.09123808
1037.90 0.09120678
1038.00 0.09117548
1038.10 0.0911442
1038.20 0.09111293
1038.30 0.09108168
1038.40 0.09105043
1038.50 0.09101918
1038.60 0.09098795
1038.70 0.09095674
1038.80 0.09092553
1038.90 0.09089433
1039.00 0.09086314
1039.10 0.09083196
1039.20 0.0908008
1039.30 0.09076963
1039.40 0.09073848
1039.50 0.09070735
1039.60 0.09067622
1039.70 0.09064511
1039.80 0.09061401
1039.90 0.0905829
1040.00 0.09055182
1040.10 0.09052075
1040.20 0.09048968
1040.30 0.09045863
1040.40 0.09042759
1040.50 0.09039655
1040.60 0.09036553
1040.70 0.09033451
1040.80 0.09030351
1040.90 0.09027251
1041.00 0.09024154
1041.10 0.09021056
1041.20 0.0901796
1041.30 0.09014865
1041.40 0.0901177
1041.50 0.09008678
1041.60 0.09005585
1041.70 0.09002505
1041.80 0.08999429
1041.90 0.08996353
1042.00 0.08993279
1042.10 0.08990206
1042.20 0.08987133
1042.30 0.08984061
1042.40 0.08980991
1042.50 0.08977922
1042.60 0.08974854
1042.70 0.08971785
1042.80 0.08968719
1042.90 0.08965654
1043.00 0.08962589
1043.10 0.08959526
1043.20 0.08956464
1043.30 0.08953403
1043.40 0.08950343
1043.50 0.08947283
1043.60 0.08944225
1043.70 0.08941167
1043.80 0.08938112
1043.90 0.08935056
1044.00 0.08932002
1044.10 0.08928948
1044.20 0.08925897
1044.30 0.08922845
1044.40 0.08919795
1044.50 0.08916745
1044.60 0.08913698
1044.70 0.0891065
1044.80 0.08907604
1044.90 0.08904558
1045.00 0.08901515
1045.10 0.08898472
1045.20 0.08895429
1045.30 0.08892388
1045.40 0.08889348
1045.50 0.08886308
1045.60 0.0888327
1045.70 0.08880233
1045.80 0.08877197
1045.90 0.08874161
1046.00 0.08871127
1046.10 0.08868094
1046.20 0.08865062
1046.30 0.08862031
1046.40 0.08859001
1046.50 0.08855972
1046.60 0.08852943
1046.70 0.08849916
1046.80 0.0884689
1046.90 0.08843865
1047.00 0.0884084
1047.10 0.08837817
1047.20 0.08834795
1047.30 0.08831773
1047.40 0.08828753
1047.50 0.08825734
1047.60 0.08822715
1047.70 0.08819698
1047.80 0.08816682
1047.90 0.08813667
1048.00 0.08810652
1048.10 0.08807639
1048.20 0.08804626
1048.30 0.08801615
1048.40 0.08798605
1048.50 0.08795595
1048.60 0.08792586
1048.70 0.0878958
1048.80 0.08786573
1048.90 0.08783567
1049.00 0.08780564
1049.10 0.0877756
1049.20 0.08774557
1049.30 0.08771556
1049.40 0.08768555
1049.50 0.08765555
1049.60 0.08762558
1049.70 0.0875956
1049.80 0.08756563
1049.90 0.08753568
1050.00 0.08750573
1050.10 0.08747579
1050.20 0.08744587
1050.30 0.08741595
1050.40 0.08738604
1050.50 0.08735614
1050.60 0.08732625
1050.70 0.08729638
1050.80 0.08726651
1050.90 0.08723666
1051.00 0.0872068
1051.10 0.08717697
1051.20 0.08714714
1051.30 0.08711732
1051.40 0.08708751
1051.50 0.08705771
1051.60 0.08702793
1051.70 0.08699814
1051.80 0.08696837
1051.90 0.08693861
1052.00 0.08690886
1052.10 0.08687933
1052.20 0.08684992
1052.30 0.0868205
1052.40 0.08679111
1052.50 0.08676172
1052.60 0.08673234
1052.70 0.08670297
1052.80 0.08667361
1052.90 0.08664426
1053.00 0.08661492
1053.10 0.08658558
1053.20 0.08655627
1053.30 0.08652695
1053.40 0.08649765
1053.50 0.08646836
1053.60 0.08643908
1053.70 0.0864098
1053.80 0.08638054
1053.90 0.08635129
1054.00 0.08632204
1054.10 0.08629281
1054.20 0.08626358
1054.30 0.08623436
1054.40 0.08620516
1054.50 0.08617596
1054.60 0.08614677
1054.70 0.08611759
1054.80 0.08608842
1054.90 0.08605926
1055.00 0.08603012
1055.10 0.08600098
1055.20 0.08597185
1055.30 0.08594273
1055.40 0.08591361
1055.50 0.08588451
1055.60 0.08585542
1055.70 0.08582634
1055.80 0.08579726
1055.90 0.0857682
1056.00 0.08573914
1056.10 0.08571009
1056.20 0.08568106
1056.30 0.08565203
1056.40 0.08562302
1056.50 0.08559401
1056.60 0.08556501
1056.70 0.08553602
1056.80 0.08550704
1056.90 0.08547808
1057.00 0.08544911
1057.10 0.08542016
1057.20 0.08539121
1057.30 0.08536229
1057.40 0.08533337
1057.50 0.08530445
1057.60 0.08527555
1057.70 0.08524665
1057.80 0.08521777
1057.90 0.08518889
1058.00 0.08516003
1058.10 0.08513117
1058.20 0.08510232
1058.30 0.08507349
1058.40 0.08504465
1058.50 0.08501584
1058.60 0.08498703
1058.70 0.08495822
1058.80 0.08492943
1058.90 0.08490066
1059.00 0.08487188
1059.10 0.08484312
1059.20 0.08481436
1059.30 0.08478561
1059.40 0.08475689
1059.50 0.08472816
1059.60 0.08469944
1059.70 0.08467074
1059.80 0.08464204
1059.90 0.08461335
1060.00 0.08458467
1060.10 0.084556
1060.20 0.08452734
1060.30 0.08449869
1060.40 0.08447005
1060.50 0.08444142
1060.60 0.08441278
1060.70 0.08438417
1060.80 0.08435557
1060.90 0.08432698
1061.00 0.08429839
1061.10 0.08426981
1061.20 0.08424124
1061.30 0.08421269
1061.40 0.08418414
1061.50 0.08415559
1061.60 0.08412707
1061.70 0.08409855
1061.80 0.08407003
1061.90 0.08404153
1062.00 0.08401303
1062.10 0.08398455
1062.20 0.08395607
1062.30 0.08392761
1062.40 0.08389915
1062.50 0.08387071
1062.60 0.08384241
1062.70 0.08381428
1062.80 0.08378616
1062.90 0.08375805
1063.00 0.08372996
1063.10 0.08370186
1063.20 0.08367378
1063.30 0.0836457
1063.40 0.08361764
1063.50 0.08358958
1063.60 0.08356154
1063.70 0.0835335
1063.80 0.08350548
1063.90 0.08347746
1064.00 0.08344945
1064.10 0.08342145
1064.20 0.08339345
1064.30 0.08336548
1064.40 0.0833375
1064.50 0.08330953
1064.60 0.08328158
1064.70 0.08325364
1064.80 0.0832257
1064.90 0.08319777
1065.00 0.08316985
1065.10 0.08314194
1065.20 0.08311404
1065.30 0.08308615
1065.40 0.08305826
1065.50 0.08303039
1065.60 0.08300252
1065.70 0.08297466
1065.80 0.08294682
1065.90 0.08291898
1066.00 0.08289115
1066.10 0.08286333
1066.20 0.08283552
1066.30 0.08280772
1066.40 0.08277993
1066.50 0.08275214
1066.60 0.08272437
1066.70 0.0826966
1066.80 0.08266885
1066.90 0.08264109
1067.00 0.08261336
1067.10 0.08258563
1067.20 0.08255791
1067.30 0.08253019
1067.40 0.08250249
1067.50 0.0824748
1067.60 0.0824471
1067.70 0.08241943
1067.80 0.08239177
1067.90 0.0823641
1068.00 0.08233645
1068.10 0.0823088
1068.20 0.08228117
1068.30 0.08225354
1068.40 0.08222593
1068.50 0.08219832
1068.60 0.08217073
1068.70 0.08214313
1068.80 0.08211556
1068.90 0.08208798
1069.00 0.08206041
1069.10 0.08203286
1069.20 0.08200532
1069.30 0.08197778
1069.40 0.08195025
1069.50 0.08192273
1069.60 0.08189522
1069.70 0.08186772
1069.80 0.08184022
1069.90 0.08181275
1070.00 0.08178527
1070.10 0.0817578
1070.20 0.08173035
1070.30 0.0817029
1070.40 0.08167546
1070.50 0.08164802
1070.60 0.0816206
1070.70 0.08159319
1070.80 0.08156578
1070.90 0.08153839
1071.00 0.081511
1071.10 0.08148363
1071.20 0.08145626
1071.30 0.0814289
1071.40 0.08140155
1071.50 0.0813742
1071.60 0.08134687
1071.70 0.08131954
1071.80 0.08129223
1071.90 0.08126492
1072.00 0.08123762
1072.10 0.08121033
1072.20 0.08118305
1072.30 0.08115577
1072.40 0.08112851
1072.50 0.08110126
1072.60 0.08107401
1072.70 0.08104678
1072.80 0.08101954
1072.90 0.08099233
1073.00 0.08096511
1073.10 0.08093791
1073.20 0.08091081
1073.30 0.08088409
1073.40 0.08085739
1073.50 0.08083068
1073.60 0.08080398
1073.70 0.0807773
1073.80 0.08075062
1073.90 0.08072395
1074.00 0.08069729
1074.10 0.08067064
1074.20 0.080644
1074.30 0.08061736
1074.40 0.08059073
1074.50 0.08056411
1074.60 0.0805375
1074.70 0.0805109
1074.80 0.0804843
1074.90 0.08045772
1075.00 0.08043115
1075.10 0.08040458
1075.20 0.08037802
1075.30 0.08035147
1075.40 0.08032493
1075.50 0.08029839
1075.60 0.08027187
1075.70 0.08024536
1075.80 0.08021885
1075.90 0.08019235
1076.00 0.08016586
1076.10 0.08013937
1076.20 0.0801129
1076.30 0.08008644
1076.40 0.08005998
1076.50 0.08003353
1076.60 0.08000709
1076.70 0.07998066
1076.80 0.07995423
1076.90 0.07992782
1077.00 0.07990142
1077.10 0.07987501
1077.20 0.07984863
1077.30 0.07982224
1077.40 0.07979587
1077.50 0.0797695
1077.60 0.07974315
1077.70 0.0797168
1077.80 0.07969047
1077.90 0.07966413
1078.00 0.07963781
1078.10 0.0796115
1078.20 0.07958519
1078.30 0.0795589
1078.40 0.0795326
1078.50 0.07950632
1078.60 0.07947987
1078.70 0.07945326
1078.80 0.07942667
1078.90 0.07940008
1079.00 0.0793735
1079.10 0.07934693
1079.20 0.07932037
1079.30 0.07929382
1079.40 0.07926728
1079.50 0.07924075
1079.60 0.07921422
1079.70 0.0791877
1079.80 0.0791612
1079.90 0.0791347
1080.00 0.0791082
1080.10 0.07908171
1080.20 0.07905524
1080.30 0.07902878
1080.40 0.07900231
1080.50 0.07897586
1080.60 0.07894942
1080.70 0.07892299
1080.80 0.07889656
1080.90 0.07887015
1081.00 0.07884374
1081.10 0.07881734
1081.20 0.07879095
1081.30 0.07876456
1081.40 0.07873819
1081.50 0.07871182
1081.60 0.07868547
1081.70 0.07865912
1081.80 0.07863278
1081.90 0.07860644
1082.00 0.07858013
1082.10 0.07855381
1082.20 0.07852749
1082.30 0.0785012
1082.40 0.07847491
1082.50 0.07844862
1082.60 0.07842236
1082.70 0.07839609
1082.80 0.07836983
1082.90 0.07834358
1083.00 0.07831735
1083.10 0.07829111
1083.20 0.07826489
1083.30 0.07823867
1083.40 0.07821246
1083.50 0.07818626
1083.60 0.07816008
1083.70 0.0781339
1083.80 0.07810772
1083.90 0.07808156
1084.00 0.0780558
1084.10 0.0780301
1084.20 0.07800441
1084.30 0.07797873
1084.40 0.07795304
1084.50 0.07792738
1084.60 0.07790172
1084.70 0.07787607
1084.80 0.07785043
1084.90 0.0778248
1085.00 0.07779917
1085.10 0.07777355
1085.20 0.07774795
1085.30 0.07772234
1085.40 0.07769675
1085.50 0.07767116
1085.60 0.07764558
1085.70 0.07762002
1085.80 0.07759446
1085.90 0.0775689
1086.00 0.07754336
1086.10 0.07751782
1086.20 0.07749229
1086.30 0.07746677
1086.40 0.07744126
1086.50 0.07741575
1086.60 0.07739026
1086.70 0.07736477
1086.80 0.07733929
1086.90 0.07731382
1087.00 0.07728835
1087.10 0.0772629
1087.20 0.07723745
1087.30 0.07721201
1087.40 0.07718658
1087.50 0.07716115
1087.60 0.07713573
1087.70 0.07711033
1087.80 0.07708493
1087.90 0.07705954
1088.00 0.07703415
1088.10 0.07700877
1088.20 0.07698341
1088.30 0.07695805
1088.40 0.0769327
1088.50 0.07690736
1088.60 0.07688202
1088.70 0.07685669
1088.80 0.07683137
1088.90 0.07680606
1089.00 0.07678076
1089.10 0.07675546
1089.20 0.07673017
1089.30 0.0767049
1089.40 0.07667962
1089.50 0.07665436
1089.60 0.0766291
1089.70 0.07660385
1089.80 0.0765786
1089.90 0.07655337
1090.00 0.07652815
1090.10 0.07650293
1090.20 0.07647772
1090.30 0.07645252
1090.40 0.07642732
1090.50 0.07640214
1090.60 0.07637697
1090.70 0.07635179
1090.80 0.07632663
1090.90 0.07630148
1091.00 0.07627633
1091.10 0.07625119
1091.20 0.07622606
1091.30 0.07620094
1091.40 0.07617582
1091.50 0.07615072
1091.60 0.07612562
1091.70 0.07610053
1091.80 0.07607544
1091.90 0.07605037
1092.00 0.0760253
1092.10 0.07600025
1092.20 0.07597519
1092.30 0.07595015
1092.40 0.07592511
1092.50 0.07590008
1092.60 0.07587507
1092.70 0.07585006
1092.80 0.07582505
1092.90 0.07580005
1093.00 0.07577507
1093.10 0.07575009
1093.20 0.07572511
1093.30 0.07570015
1093.40 0.0756752
1093.50 0.07565025
1093.60 0.07562531
1093.70 0.07560037
1093.80 0.07557545
1093.90 0.07555053
1094.00 0.07552562
1094.10 0.07550072
1094.20 0.07547582
1094.30 0.07545093
1094.40 0.07542606
1094.50 0.07540119
1094.60 0.07537633
1094.70 0.07535147
1094.80 0.07532676
1094.90 0.0753022
1095.00 0.07527763
1095.10 0.07525308
1095.20 0.07522855
1095.30 0.07520401
1095.40 0.07517948
1095.50 0.07515496
1095.60 0.07513044
1095.70 0.07510594
1095.80 0.07508144
1095.90 0.07505695
1096.00 0.07503248
1096.10 0.075008
1096.20 0.07498354
1096.30 0.07495908
1096.40 0.07493463
1096.50 0.07491018
1096.60 0.07488574
1096.70 0.07486131
1096.80 0.07483689
1096.90 0.07481248
1097.00 0.07478808
1097.10 0.07476368
1097.20 0.0747393
1097.30 0.07471491
1097.40 0.07469053
1097.50 0.07466617
1097.60 0.07464181
1097.70 0.07461746
1097.80 0.07459311
1097.90 0.07456878
1098.00 0.07454445
1098.10 0.07452013
1098.20 0.07449582
1098.30 0.07447151
1098.40 0.07444721
1098.50 0.07442292
1098.60 0.07439864
1098.70 0.07437437
1098.80 0.0743501
1098.90 0.07432584
1099.00 0.07430159
1099.10 0.07427734
1099.20 0.07425311
1099.30 0.07422887
1099.40 0.07420465
1099.50 0.07418044
1099.60 0.07415623
1099.70 0.07413203
1099.80 0.07410784
1099.90 0.07408365
1100.00 0.07405948
1100.10 0.07403531
1100.20 0.07401115
1100.30 0.07398699
1100.40 0.07396285
1100.50 0.07393871
1100.60 0.07391458
1100.70 0.07389045
1100.80 0.07386634
1100.90 0.07384223
1101.00 0.07381813
1101.10 0.07379403
1101.20 0.07376995
1101.30 0.07374587
1101.40 0.0737218
1101.50 0.07369773
1101.60 0.07367368
1101.70 0.07364963
1101.80 0.07362559
1101.90 0.07360155
1102.00 0.07357753
1102.10 0.07355351
1102.20 0.0735295
1102.30 0.0735055
1102.40 0.0734815
1102.50 0.07345752
1102.60 0.07343354
1102.70 0.07340956
1102.80 0.07338559
1102.90 0.07336163
1103.00 0.07333768
1103.10 0.07331374
1103.20 0.07328981
1103.30 0.07326587
1103.40 0.07324196
1103.50 0.07321805
1103.60 0.07319413
1103.70 0.07317024
1103.80 0.07314635
1103.90 0.07312246
1104.00 0.07309859
1104.10 0.07307472
1104.20 0.07305086
1104.30 0.07302701
1104.40 0.07300315
1104.50 0.07297932
1104.60 0.07295548
1104.70 0.07293166
1104.80 0.07290784
1104.90 0.07288404
1105.00 0.07286023
1105.10 0.07283644
1105.20 0.07281265
1105.30 0.07278887
1105.40 0.0727651
1105.50 0.07274134
1105.60 0.07271758
1105.70 0.07269383
1105.80 0.0726702
1105.90 0.07264656
1106.00 0.07262294
1106.10 0.07259932
1106.20 0.07257572
1106.30 0.07255212
1106.40 0.07252852
1106.50 0.07250494
1106.60 0.07248136
1106.70 0.07245778
1106.80 0.07243421
1106.90 0.07241066
1107.00 0.07238711
1107.10 0.07236357
1107.20 0.07234004
1107.30 0.0723165
1107.40 0.07229298
1107.50 0.07226947
1107.60 0.07224597
1107.70 0.07222246
1107.80 0.07219897
1107.90 0.07217549
1108.00 0.07215201
1108.10 0.07212854
1108.20 0.07210508
1108.30 0.07208162
1108.40 0.07205818
1108.50 0.07203474
1108.60 0.0720113
1108.70 0.07198788
1108.80 0.07196446
1108.90 0.07194105
1109.00 0.07191764
1109.10 0.07189425
1109.20 0.07187086
1109.30 0.07184748
1109.40 0.0718241
1109.50 0.07180073
1109.60 0.07177738
1109.70 0.07175402
1109.80 0.07173068
1109.90 0.07170734
1110.00 0.071684
1110.10 0.07166068
1110.20 0.07163737
1110.30 0.07161405
1110.40 0.07159075
1110.50 0.07156746
1110.60 0.07154417
1110.70 0.07152089
1110.80 0.07149761
1110.90 0.07147435
1111.00 0.07145108
1111.10 0.07142784
1111.20 0.0714046
1111.30 0.07138136
1111.40 0.07135813
1111.50 0.0713349
1111.60 0.07131169
1111.70 0.07128848
1111.80 0.07126528
1111.90 0.07124208
1112.00 0.07121889
1112.10 0.07119571
1112.20 0.07117254
1112.30 0.07114938
1112.40 0.07112622
1112.50 0.07110307
1112.60 0.07107993
1112.70 0.07105678
1112.80 0.07103365
1112.90 0.07101053
1113.00 0.07098742
1113.10 0.07096431
1113.20 0.07094121
1113.30 0.07091811
1113.40 0.07089503
1113.50 0.07087195
1113.60 0.07084887
1113.70 0.07082581
1113.80 0.07080276
1113.90 0.0707797
1114.00 0.07075666
1114.10 0.07073363
1114.20 0.07071059
1114.30 0.07068757
1114.40 0.07066455
1114.50 0.07064155
1114.60 0.07061855
1114.70 0.07059555
1114.80 0.07057257
1114.90 0.07054959
1115.00 0.07052662
1115.10 0.07050365
1115.20 0.07048068
1115.30 0.07045774
1115.40 0.07043479
1115.50 0.07041186
1115.60 0.07038893
1115.70 0.070366
1115.80 0.07034309
1115.90 0.07032018
1116.00 0.07029727
1116.10 0.07027439
1116.20 0.0702515
1116.30 0.07022861
1116.40 0.07020574
1116.50 0.07018288
1116.60 0.07016002
1116.70 0.07013716
1116.80 0.07011443
1116.90 0.07009184
1117.00 0.07006927
1117.10 0.0700467
1117.20 0.07002414
1117.30 0.07000158
1117.40 0.06997903
1117.50 0.06995649
1117.60 0.06993396
1117.70 0.06991143
1117.80 0.06988891
1117.90 0.06986639
1118.00 0.06984388
1118.10 0.06982139
1118.20 0.06979889
1118.30 0.0697764
1118.40 0.06975393
1118.50 0.06973145
1118.60 0.06970898
1118.70 0.06968653
1118.80 0.06966408
1118.90 0.06964163
1119.00 0.06961919
1119.10 0.06959676
1119.20 0.06957434
1119.30 0.06955192
1119.40 0.06952951
1119.50 0.0695071
1119.60 0.06948471
1119.70 0.06946231
1119.80 0.06943993
1119.90 0.06941755
1120.00 0.06939518
1120.10 0.06937282
1120.20 0.06935047
1120.30 0.06932812
1120.40 0.06930578
1120.50 0.06928344
1120.60 0.06926111
1120.70 0.06923879
1120.80 0.06921648
1120.90 0.06919417
1121.00 0.06917187
1121.10 0.06914958
1121.20 0.0691273
1121.30 0.06910501
1121.40 0.06908274
1121.50 0.06906047
1121.60 0.06903822
1121.70 0.06901596
1121.80 0.06899371
1121.90 0.06897148
1122.00 0.06894925
1122.10 0.06892701
1122.20 0.0689048
1122.30 0.06888259
1122.40 0.06886038
1122.50 0.06883818
1122.60 0.06881599
1122.70 0.0687938
1122.80 0.06877162
1122.90 0.06874945
1123.00 0.06872728
1123.10 0.06870513
1123.20 0.06868297
1123.30 0.06866083
1123.40 0.06863869
1123.50 0.06861656
1123.60 0.06859443
1123.70 0.06857231
1123.80 0.0685502
1123.90 0.0685281
1124.00 0.068506
1124.10 0.06848391
1124.20 0.06846182
1124.30 0.06843975
1124.40 0.06841768
1124.50 0.06839561
1124.60 0.06837356
1124.70 0.06835151
1124.80 0.06832946
1124.90 0.06830743
1125.00 0.0682854
1125.10 0.06826337
1125.20 0.06824135
1125.30 0.06821934
1125.40 0.06819735
1125.50 0.06817535
1125.60 0.06815336
1125.70 0.06813137
1125.80 0.0681094
1125.90 0.06808742
1126.00 0.06806546
1126.10 0.0680435
1126.20 0.06802155
1126.30 0.06799961
1126.40 0.06797768
1126.50 0.06795575
1126.60 0.06793382
1126.70 0.06791191
1126.80 0.06789
1126.90 0.0678681
1127.00 0.0678462
1127.10 0.06782432
1127.20 0.06780244
1127.30 0.06778056
1127.40 0.06775869
1127.50 0.06773683
1127.60 0.06771497
1127.70 0.06769312
1127.80 0.06767128
1127.90 0.06764945
1128.00 0.06762781
1128.10 0.06760623
1128.20 0.06758466
1128.30 0.0675631
1128.40 0.06754155
1128.50 0.06752
1128.60 0.06749846
1128.70 0.06747692
1128.80 0.06745539
1128.90 0.06743387
1129.00 0.06741236
1129.10 0.06739085
1129.20 0.06736934
1129.30 0.06734785
1129.40 0.06732636
1129.50 0.06730488
1129.60 0.0672834
1129.70 0.06726193
1129.80 0.06724046
1129.90 0.067219
1130.00 0.06719755
1130.10 0.06717611
1130.20 0.06715467
1130.30 0.06713325
1130.40 0.06711181
1130.50 0.0670904
1130.60 0.06706899
1130.70 0.06704759
1130.80 0.06702619
1130.90 0.06700479
1131.00 0.06698341
1131.10 0.06696203
1131.20 0.06694066
1131.30 0.06691929
1131.40 0.06689794
1131.50 0.06687658
1131.60 0.06685524
1131.70 0.06683389
1131.80 0.06681256
1131.90 0.06679124
1132.00 0.06676991
1132.10 0.0667486
1132.20 0.06672729
1132.30 0.066706
1132.40 0.0666847
1132.50 0.06666341
1132.60 0.06664213
1132.70 0.06662086
1132.80 0.06659959
1132.90 0.06657832
1133.00 0.06655707
1133.10 0.06653582
1133.20 0.06651458
1133.30 0.06649334
1133.40 0.06647211
1133.50 0.06645089
1133.60 0.06642967
1133.70 0.06640846
1133.80 0.06638726
1133.90 0.06636606
1134.00 0.06634487
1134.10 0.06632368
1134.20 0.0663025
1134.30 0.06628134
1134.40 0.06626017
1134.50 0.06623901
1134.60 0.06621786
1134.70 0.06619671
1134.80 0.06617557
1134.90 0.06615445
1135.00 0.06613332
1135.10 0.0661122
1135.20 0.06609109
1135.30 0.06606998
1135.40 0.06604888
1135.50 0.06602778
1135.60 0.06600669
1135.70 0.06598561
1135.80 0.06596454
1135.90 0.06594347
1136.00 0.06592241
1136.10 0.06590135
1136.20 0.0658803
1136.30 0.06585925
1136.40 0.06583821
1136.50 0.06581719
1136.60 0.06579616
1136.70 0.06577515
1136.80 0.06575414
1136.90 0.06573313
1137.00 0.06571213
1137.10 0.06569114
1137.20 0.06567015
1137.30 0.06564918
1137.40 0.0656282
1137.50 0.06560723
1137.60 0.06558628
1137.70 0.06556531
1137.80 0.06554437
1137.90 0.06552343
1138.00 0.06550249
1138.10 0.06548157
1138.20 0.06546065
1138.30 0.06543973
1138.40 0.06541882
1138.50 0.06539791
1138.60 0.06537702
1138.70 0.06535612
1138.80 0.06533524
1138.90 0.06531437
1139.00 0.06529349
1139.10 0.06527262
1139.20 0.06525177
1139.30 0.06523115
1139.40 0.06521054
1139.50 0.06518994
1139.60 0.06516933
1139.70 0.06514874
1139.80 0.06512815
1139.90 0.06510758
1140.00 0.06508701
1140.10 0.06506643
1140.20 0.06504587
1140.30 0.06502532
1140.40 0.06500477
1140.50 0.06498422
1140.60 0.06496369
1140.70 0.06494316
1140.80 0.06492263
1140.90 0.06490212
1141.00 0.06488161
1141.10 0.0648611
1141.20 0.0648406
1141.30 0.06482011
1141.40 0.06479962
1141.50 0.06477915
1141.60 0.06475867
1141.70 0.0647382
1141.80 0.06471774
1141.90 0.06469729
1142.00 0.06467683
1142.10 0.06465639
1142.20 0.06463595
1142.30 0.06461552
1142.40 0.0645951
1142.50 0.06457467
1142.60 0.06455427
1142.70 0.06453386
1142.80 0.06451346
1142.90 0.06449306
1143.00 0.06447267
1143.10 0.0644523
1143.20 0.06443192
1143.30 0.06441154
1143.40 0.06439118
1143.50 0.06437083
1143.60 0.06435047
1143.70 0.06433013
1143.80 0.06430979
1143.90 0.06428946
1144.00 0.06426913
1144.10 0.06424881
1144.20 0.06422849
1144.30 0.06420818
1144.40 0.06418789
1144.50 0.06416759
1144.60 0.0641473
1144.70 0.06412702
1144.80 0.06410674
1144.90 0.06408647
1145.00 0.0640662
1145.10 0.06404594
1145.20 0.06402569
1145.30 0.06400544
1145.40 0.0639852
1145.50 0.06396496
1145.60 0.06394473
1145.70 0.06392451
1145.80 0.0639043
1145.90 0.06388409
1146.00 0.06386388
1146.10 0.06384368
1146.20 0.06382349
1146.30 0.0638033
1146.40 0.06378312
1146.50 0.06376295
1146.60 0.06374278
1146.70 0.06372262
1146.80 0.06370247
1146.90 0.06368231
1147.00 0.06366217
1147.10 0.06364203
1147.20 0.0636219
1147.30 0.06360177
1147.40 0.06358165
1147.50 0.06356154
1147.60 0.06354143
1147.70 0.06352133
1147.80 0.06350124
1147.90 0.06348114
1148.00 0.06346106
1148.10 0.06344099
1148.20 0.06342091
1148.30 0.06340085
1148.40 0.06338078
1148.50 0.06336073
1148.60 0.06334068
1148.70 0.06332064
1148.80 0.0633006
1148.90 0.06328058
1149.00 0.06326055
1149.10 0.06324054
1149.20 0.06322052
1149.30 0.06320052
1149.40 0.06318052
1149.50 0.06316053
1149.60 0.06314054
1149.70 0.06312056
1149.80 0.06310059
1149.90 0.06308062
1150.00 0.06306065
1150.10 0.0630407
1150.20 0.06302074
1150.30 0.0630008
1150.40 0.06298086
1150.50 0.06296093
1150.60 0.062941
1150.70 0.06292117
1150.80 0.06290134
1150.90 0.06288152
1151.00 0.0628617
1151.10 0.06284189
1151.20 0.06282209
1151.30 0.06280229
1151.40 0.0627825
1151.50 0.06276271
1151.60 0.06274293
1151.70 0.06272316
1151.80 0.06270339
1151.90 0.06268362
1152.00 0.06266387
1152.10 0.06264412
1152.20 0.06262437
1152.30 0.06260464
1152.40 0.0625849
1152.50 0.06256517
1152.60 0.06254545
1152.70 0.06252574
1152.80 0.06250602
1152.90 0.06248632
1153.00 0.06246663
1153.10 0.06244694
1153.20 0.06242724
1153.30 0.06240757
1153.40 0.0623879
1153.50 0.06236822
1153.60 0.06234856
1153.70 0.0623289
1153.80 0.06230925
1153.90 0.06228961
1154.00 0.06226997
1154.10 0.06225034
1154.20 0.06223071
1154.30 0.06221109
1154.40 0.06219147
1154.50 0.06217187
1154.60 0.06215226
1154.70 0.06213266
1154.80 0.06211307
1154.90 0.06209349
1155.00 0.0620739
1155.10 0.06205433
1155.20 0.06203476
1155.30 0.06201519
1155.40 0.06199564
1155.50 0.06197609
1155.60 0.06195654
1155.70 0.06193701
1155.80 0.06191747
1155.90 0.06189794
1156.00 0.06187842
1156.10 0.06185891
1156.20 0.06183939
1156.30 0.06181989
1156.40 0.06180054
1156.50 0.06178133
1156.60 0.06176211
1156.70 0.06174291
1156.80 0.06172371
1156.90 0.06170453
1157.00 0.06168533
1157.10 0.06166616
1157.20 0.06164698
1157.30 0.06162782
1157.40 0.06160865
1157.50 0.0615895
1157.60 0.06157034
1157.70 0.0615512
1157.80 0.06153206
1157.90 0.06151292
1158.00 0.06149379
1158.10 0.06147467
1158.20 0.06145555
1158.30 0.06143644
1158.40 0.06141733
1158.50 0.06139823
1158.60 0.06137913
1158.70 0.06136005
1158.80 0.06134096
1158.90 0.06132188
1159.00 0.06130281
1159.10 0.06128375
1159.20 0.06126469
1159.30 0.06124563
1159.40 0.06122658
1159.50 0.06120753
1159.60 0.0611885
1159.70 0.06116947
1159.80 0.06115044
1159.90 0.06113142
1160.00 0.0611124
1160.10 0.06109339
1160.20 0.06107438
1160.30 0.06105538
1160.40 0.06103639
1160.50 0.0610174
1160.60 0.06099842
1160.70 0.06097945
1160.80 0.06096047
1160.90 0.06094151
1161.00 0.06092255
1161.10 0.0609036
1161.20 0.06088465
1161.30 0.06086571
1161.40 0.06084677
1161.50 0.06082784
1161.60 0.06080892
1161.70 0.06078999
1161.80 0.06077108
1161.90 0.06075217
1162.00 0.06073327
1162.10 0.06071437
1162.20 0.06069529
1162.30 0.06067621
1162.40 0.06065714
1162.50 0.06063809
1162.60 0.06061903
1162.70 0.06059997
1162.80 0.06058093
1162.90 0.06056188
1163.00 0.06054285
1163.10 0.06052383
1163.20 0.0605048
1163.30 0.06048578
1163.40 0.06046677
1163.50 0.06044776
1163.60 0.06042876
1163.70 0.06040976
1163.80 0.06039077
1163.90 0.06037179
1164.00 0.06035281
1164.10 0.06033384
1164.20 0.06031487
1164.30 0.06029591
1164.40 0.06027695
1164.50 0.060258
1164.60 0.06023906
1164.70 0.06022012
1164.80 0.06020119
1164.90 0.06018225
1165.00 0.06016333
1165.10 0.06014441
1165.20 0.0601255
1165.30 0.0601066
1165.40 0.0600877
1165.50 0.0600688
1165.60 0.06004991
1165.70 0.06003103
1165.80 0.06001216
1165.90 0.05999329
1166.00 0.05997441
1166.10 0.05995556
1166.20 0.0599367
1166.30 0.05991785
1166.40 0.05989901
1166.50 0.05988017
1166.60 0.05986133
1166.70 0.05984251
1166.80 0.05982369
1166.90 0.05980487
1167.00 0.05978606
1167.10 0.05976725
1167.20 0.05974845
1167.30 0.05972966
1167.40 0.05971087
1167.50 0.05969209
1167.60 0.05967331
1167.70 0.05965454
1167.80 0.05963577
1167.90 0.05961702
1168.00 0.0595985
1168.10 0.05958001
1168.20 0.05956154
1168.30 0.05954307
1168.40 0.05952461
1168.50 0.05950615
1168.60 0.05948769
1168.70 0.05946925
1168.80 0.05945081
1168.90 0.05943237
1169.00 0.05941393
1169.10 0.05939551
1169.20 0.05937709
1169.30 0.05935867
1169.40 0.05934026
1169.50 0.05932186
1169.60 0.05930345
1169.70 0.05928506
1169.80 0.05926667
1169.90 0.05924829
1170.00 0.05922992
1170.10 0.05921154
1170.20 0.05919318
1170.30 0.05917481
1170.40 0.05915646
1170.50 0.0591381
1170.60 0.05911976
1170.70 0.05910142
1170.80 0.05908309
1170.90 0.05906475
1171.00 0.05904644
1171.10 0.05902811
1171.20 0.0590098
1171.30 0.05899149
1171.40 0.05897319
1171.50 0.0589549
1171.60 0.0589366
1171.70 0.05891831
1171.80 0.05890004
1171.90 0.05888176
1172.00 0.05886349
1172.10 0.05884523
1172.20 0.05882697
1172.30 0.05880871
1172.40 0.05879047
1172.50 0.05877223
1172.60 0.05875398
1172.70 0.05873575
1172.80 0.05871753
1172.90 0.05869931
1173.00 0.05868109
1173.10 0.05866288
1173.20 0.05864467
1173.30 0.05862647
1173.40 0.05860828
1173.50 0.05859009
1173.60 0.05857191
1173.70 0.05855373
1173.80 0.05853562
1173.90 0.05851753
1174.00 0.05849945
1174.10 0.05848137
1174.20 0.05846329
1174.30 0.05844522
1174.40 0.05842716
1174.50 0.05840911
1174.60 0.05839106
1174.70 0.05837301
1174.80 0.05835497
1174.90 0.05833694
1175.00 0.05831891
1175.10 0.05830088
1175.20 0.05828286
1175.30 0.05826485
1175.40 0.05824684
1175.50 0.05822883
1175.60 0.05821084
1175.70 0.05819285
1175.80 0.05817485
1175.90 0.05815687
1176.00 0.0581389
1176.10 0.05812092
1176.20 0.05810296
1176.30 0.05808499
1176.40 0.05806704
1176.50 0.05804908
1176.60 0.05803114
1176.70 0.05801321
1176.80 0.05799527
1176.90 0.05797734
1177.00 0.05795941
1177.10 0.0579415
1177.20 0.05792358
1177.30 0.05790568
1177.40 0.05788777
1177.50 0.05786986
1177.60 0.05785198
1177.70 0.05783409
1177.80 0.05781621
1177.90 0.05779833
1178.00 0.05778045
1178.10 0.05776259
1178.20 0.05774473
1178.30 0.05772688
1178.40 0.05770902
1178.50 0.05769117
1178.60 0.05767333
1178.70 0.0576555
1178.80 0.05763767
1178.90 0.05761984
1179.00 0.05760203
1179.10 0.05758421
1179.20 0.0575664
1179.30 0.05754859
1179.40 0.05753079
1179.50 0.05751301
1179.60 0.05749521
1179.70 0.05747743
1179.80 0.05745965
1179.90 0.05744188
1180.00 0.05742411
1180.10 0.05740636
1180.20 0.0573886
1180.30 0.05737085
1180.40 0.0573531
1180.50 0.05733536
1180.60 0.05731763
1180.70 0.0572999
1180.80 0.05728217
1180.90 0.05726445
1181.00 0.05724674
1181.10 0.05722903
1181.20 0.05721132
1181.30 0.05719363
1181.40 0.05717593
1181.50 0.05715824
1181.60 0.05714056
1181.70 0.05712288
1181.80 0.05710521
1181.90 0.05708754
1182.00 0.05706987
1182.10 0.05705222
1182.20 0.05703457
1182.30 0.05701692
1182.40 0.05699928
1182.50 0.05698164
1182.60 0.056964
1182.70 0.05694638
1182.80 0.05692876
1182.90 0.05691115
1183.00 0.05689353
1183.10 0.05687592
1183.20 0.05685833
1183.30 0.05684073
1183.40 0.05682313
1183.50 0.05680555
1183.60 0.05678797
1183.70 0.05677039
1183.80 0.05675283
1183.90 0.05673526
1184.00 0.0567177
1184.10 0.05670015
1184.20 0.0566826
1184.30 0.05666505
1184.40 0.05664751
1184.50 0.05662997
1184.60 0.05661245
1184.70 0.05659493
1184.80 0.05657741
1184.90 0.0565599
1185.00 0.05654238
1185.10 0.05652488
1185.20 0.05650738
1185.30 0.05648989
1185.40 0.0564724
1185.50 0.05645505
1185.60 0.05643791
1185.70 0.05642076
1185.80 0.05640363
1185.90 0.0563865
1186.00 0.05636937
1186.10 0.05635225
1186.20 0.05633514
1186.30 0.05631802
1186.40 0.05630092
1186.50 0.05628381
1186.60 0.05626672
1186.70 0.05624962
1186.80 0.05623254
1186.90 0.05621546
1187.00 0.05619838
1187.10 0.05618131
1187.20 0.05616425
1187.30 0.05614718
1187.40 0.05613013
1187.50 0.05611307
1187.60 0.05609602
1187.70 0.05607898
1187.80 0.05606194
1187.90 0.05604492
1188.00 0.05602789
1188.10 0.05601086
1188.20 0.05599385
1188.30 0.05597683
1188.40 0.05595982
1188.50 0.05594283
1188.60 0.05592583
1188.70 0.05590883
1188.80 0.05589185
1188.90 0.05587486
1189.00 0.05585788
1189.10 0.05584091
1189.20 0.05582395
1189.30 0.05580698
1189.40 0.05579002
1189.50 0.05577307
1189.60 0.05575612
1189.70 0.05573918
1189.80 0.05572224
1189.90 0.05570531
1190.00 0.05568838
1190.10 0.05567145
1190.20 0.05565453
1190.30 0.05563761
1190.40 0.05562071
1190.50 0.05560381
1190.60 0.05558691
1190.70 0.05557001
1190.80 0.05555312
1190.90 0.05553624
1191.00 0.05551936
1191.10 0.05550248
1191.20 0.05548561
1191.30 0.05546875
1191.40 0.05545189
1191.50 0.05543503
1191.60 0.05541818
1191.70 0.05540134
1191.80 0.0553845
1191.90 0.05536766
1192.00 0.05535082
1192.10 0.055334
1192.20 0.05531718
1192.30 0.05530036
1192.40 0.05528355
1192.50 0.05526675
1192.60 0.05524995
1192.70 0.05523314
1192.80 0.05521635
1192.90 0.05519956
1193.00 0.05518278
1193.10 0.05516601
1193.20 0.05514923
1193.30 0.05513246
1193.40 0.0551157
1193.50 0.05509895
1193.60 0.05508219
1193.70 0.05506544
1193.80 0.0550487
1193.90 0.05503196
1194.00 0.05501522
1194.10 0.0549985
1194.20 0.05498178
1194.30 0.05496505
1194.40 0.05494834
1194.50 0.05493162
1194.60 0.05491492
1194.70 0.05489822
1194.80 0.05488152
1194.90 0.05486484
1195.00 0.05484815
1195.10 0.05483147
1195.20 0.05481479
1195.30 0.05479812
1195.40 0.05478146
1195.50 0.05476479
1195.60 0.05474814
1195.70 0.05473148
1195.80 0.05471483
1195.90 0.05469819
1196.00 0.05468155
1196.10 0.05466492
1196.20 0.05464829
1196.30 0.05463167
1196.40 0.05461505
1196.50 0.05459843
1196.60 0.05458183
1196.70 0.05456522
1196.80 0.05454863
1196.90 0.05453203
1197.00 0.05451544
1197.10 0.05449886
1197.20 0.05448228
1197.30 0.0544657
1197.40 0.05444898
1197.50 0.05443225
1197.60 0.05441551
1197.70 0.05439878
1197.80 0.05438206
1197.90 0.05436534
1198.00 0.05434863
1198.10 0.05433191
1198.20 0.05431521
1198.30 0.05429852
1198.40 0.05428182
1198.50 0.05426513
1198.60 0.05424844
1198.70 0.05423177
1198.80 0.05421509
1198.90 0.05419842
1199.00 0.05418175
1199.10 0.0541651
1199.20 0.05414844
1199.30 0.05413179
1199.40 0.05411514
1199.50 0.0540985
1199.60 0.05408186
1199.70 0.05406524
1199.80 0.0540486
1199.90 0.05403199
1200.00 0.05401537
