# Wavelength(nm)  Flambda(ergs/cm^s/s/nm)
300.00 1.98141
300.10 1.981006
300.20 1.980589
300.30 1.98019
300.40 1.979921
300.50 1.979653
300.60 1.979384
300.70 1.979116
300.80 1.978847
300.90 1.978578
301.00 1.978308
301.10 1.978039
301.20 1.97777
301.30 1.977501
301.40 1.977232
301.50 1.976963
301.60 1.976692
301.70 1.976423
301.80 1.976154
301.90 1.975884
302.00 1.975614
302.10 1.975277
302.20 1.974933
302.30 1.974589
302.40 1.974245
302.50 1.9739
302.60 1.973557
302.70 1.973212
302.80 1.972868
302.90 1.972524
303.00 1.97218
303.10 1.971836
303.20 1.971492
303.30 1.971153
303.40 1.970856
303.50 1.970559
303.60 1.970262
303.70 1.969965
303.80 1.969668
303.90 1.96937
304.00 1.969073
304.10 1.968776
304.20 1.968479
304.30 1.968181
304.40 1.967884
304.50 1.967587
304.60 1.967268
304.70 1.966947
304.80 1.966625
304.90 1.966303
305.00 1.965982
305.10 1.965661
305.20 1.965339
305.30 1.965017
305.40 1.964696
305.50 1.964374
305.60 1.964053
305.70 1.963732
305.80 1.96341
305.90 1.963088
306.00 1.962766
306.10 1.962446
306.20 1.962124
306.30 1.961802
306.40 1.961458
306.50 1.961107
306.60 1.960756
306.70 1.960405
306.80 1.960055
306.90 1.959703
307.00 1.959353
307.10 1.959002
307.20 1.958651
307.30 1.958301
307.40 1.95795
307.50 1.9576
307.60 1.957249
307.70 1.956898
307.80 1.956549
307.90 1.956198
308.00 1.955848
308.10 1.955497
308.20 1.955147
308.30 1.954797
308.40 1.954447
308.50 1.954096
308.60 1.953747
308.70 1.953396
308.80 1.953053
308.90 1.952724
309.00 1.952431
309.10 1.952137
309.20 1.951844
309.30 1.95155
309.40 1.95124
309.50 1.950831
309.60 1.950422
309.70 1.950012
309.80 1.949604
309.90 1.949195
310.00 1.948787
310.10 1.948378
310.20 1.947969
310.30 1.947561
310.40 1.947206
310.50 1.946912
310.60 1.946617
310.70 1.946321
310.80 1.946026
310.90 1.94573
311.00 1.945412
311.10 1.945095
311.20 1.944777
311.30 1.944433
311.40 1.944017
311.50 1.943602
311.60 1.943186
311.70 1.942771
311.80 1.942356
311.90 1.94194
312.00 1.941525
312.10 1.94111
312.20 1.940818
312.30 1.940633
312.40 1.940352
312.50 1.939842
312.60 1.939375
312.70 1.938908
312.80 1.938441
312.90 1.938062
313.00 1.937777
313.10 1.937492
313.20 1.937206
313.30 1.936879
313.40 1.936432
313.50 1.935985
313.60 1.935539
313.70 1.935093
313.80 1.934647
313.90 1.934201
314.00 1.933756
314.10 1.933409
314.20 1.933062
314.30 1.932715
314.40 1.932369
314.50 1.932022
314.60 1.931676
314.70 1.93133
314.80 1.930943
314.90 1.930464
315.00 1.930005
315.10 1.92963
315.20 1.929256
315.30 1.928881
315.40 1.928507
315.50 1.928133
315.60 1.927758
315.70 1.927384
315.80 1.92701
315.90 1.926636
316.00 1.926262
316.10 1.925889
316.20 1.925514
316.30 1.92486
316.40 1.924486
316.50 1.924113
316.60 1.924021
316.70 1.923367
316.80 1.922714
316.90 1.922341
317.00 1.921969
317.10 1.921596
317.20 1.921224
317.30 1.920976
317.40 1.920683
317.50 1.92026
317.60 1.919837
317.70 1.919414
317.80 1.918991
317.90 1.918516
318.00 1.917907
318.10 1.917536
318.20 1.917164
318.30 1.916794
318.40 1.916422
318.50 1.916051
318.60 1.915464
318.70 1.915371
318.80 1.914723
318.90 1.914158
319.00 1.914125
319.10 1.913479
319.20 1.912916
319.30 1.912595
319.40 1.912273
319.50 1.911951
319.60 1.911399
319.70 1.910932
319.80 1.910464
319.90 1.909997
320.00 1.909578
320.10 1.909209
320.20 1.908993
320.30 1.908351
320.40 1.908255
320.50 1.907613
320.60 1.907364
320.70 1.906996
320.80 1.906562
320.90 1.906057
321.00 1.905553
321.10 1.905048
321.20 1.904958
321.30 1.904527
321.40 1.904097
321.50 1.903665
321.60 1.903234
321.70 1.902804
321.80 1.902365
321.90 1.901917
322.00 1.901123
322.10 1.900685
322.20 1.900247
322.30 1.899809
322.40 1.899371
322.50 1.898934
322.60 1.898497
322.70 1.89806
322.80 1.897995
322.90 1.897538
323.00 1.897082
323.10 1.896626
323.20 1.896171
323.30 1.895715
323.40 1.89526
323.50 1.894804
323.60 1.894349
323.70 1.893894
323.80 1.89344
323.90 1.892985
324.00 1.892533
324.10 1.892082
324.20 1.891632
324.30 1.891173
324.40 1.890709
324.50 1.890265
324.60 1.88982
324.70 1.889376
324.80 1.888932
324.90 1.888488
325.00 1.888044
325.10 1.8876
325.20 1.887165
325.30 1.886746
325.40 1.886327
325.50 1.885877
325.60 1.885386
325.70 1.884897
325.80 1.884408
325.90 1.88396
326.00 1.883558
326.10 1.883155
326.20 1.882752
326.30 1.882373
326.40 1.882058
326.50 1.881596
326.60 1.881134
326.70 1.880673
326.80 1.880211
326.90 1.879751
327.00 1.87929
327.10 1.878829
327.20 1.878369
327.30 1.877908
327.40 1.877448
327.50 1.876988
327.60 1.87653
327.70 1.87607
327.80 1.875611
327.90 1.875067
328.00 1.874507
328.10 1.874041
328.20 1.873575
328.30 1.873109
328.40 1.872643
328.50 1.872226
328.60 1.871821
328.70 1.871415
328.80 1.870991
328.90 1.870515
329.00 1.870039
329.10 1.869562
329.20 1.869086
329.30 1.86861
329.40 1.868135
329.50 1.867659
329.60 1.867183
329.70 1.866709
329.80 1.866234
329.90 1.86576
330.00 1.865283
330.10 1.864804
330.20 1.864324
330.30 1.863845
330.40 1.863368
330.50 1.862896
330.60 1.862422
330.70 1.861949
330.80 1.861476
330.90 1.861003
331.00 1.860531
331.10 1.860059
331.20 1.859587
331.30 1.859115
331.40 1.858644
331.50 1.858158
331.60 1.857654
331.70 1.857151
331.80 1.856673
331.90 1.856197
332.00 1.855721
332.10 1.855247
332.20 1.854771
332.30 1.854296
332.40 1.853821
332.50 1.853348
332.60 1.852873
332.70 1.852399
332.80 1.851925
332.90 1.851453
333.00 1.850979
333.10 1.850515
333.20 1.850064
333.30 1.849612
333.40 1.849161
333.50 1.84871
333.60 1.848259
333.70 1.847808
333.80 1.847359
333.90 1.846909
334.00 1.846459
334.10 1.845978
334.20 1.845461
334.30 1.844945
334.40 1.844429
334.50 1.843913
334.60 1.843398
334.70 1.842835
334.80 1.842334
334.90 1.842
335.00 1.841666
335.10 1.840953
335.20 1.840356
335.30 1.840034
335.40 1.839438
335.50 1.838903
335.60 1.838558
335.70 1.837986
335.80 1.837641
335.90 1.837239
336.00 1.836768
336.10 1.836298
336.20 1.835828
336.30 1.83534
336.40 1.834829
336.50 1.834318
336.60 1.833808
336.70 1.833298
336.80 1.832789
336.90 1.832295
337.00 1.831821
337.10 1.831347
337.20 1.830874
337.30 1.830387
337.40 1.829884
337.50 1.829379
337.60 1.828876
337.70 1.828372
337.80 1.827869
337.90 1.827364
338.00 1.826855
338.10 1.826348
338.20 1.825839
338.30 1.825332
338.40 1.824819
338.50 1.824295
338.60 1.82377
338.70 1.823246
338.80 1.822722
338.90 1.822198
339.00 1.821675
339.10 1.821151
339.20 1.820629
339.30 1.820187
339.40 1.819862
339.50 1.819454
339.60 1.818944
339.70 1.818435
339.80 1.817925
339.90 1.817416
340.00 1.816906
340.10 1.816398
340.20 1.81589
340.30 1.815382
340.40 1.814874
340.50 1.814367
340.60 1.813859
340.70 1.813352
340.80 1.81282
340.90 1.81225
341.00 1.811705
341.10 1.811186
341.20 1.810669
341.30 1.810151
341.40 1.809634
341.50 1.809117
341.60 1.808601
341.70 1.808084
341.80 1.80758
341.90 1.807089
342.00 1.806599
342.10 1.806108
342.20 1.805745
342.30 1.805207
342.40 1.804587
342.50 1.804098
342.60 1.803608
342.70 1.803118
342.80 1.802629
342.90 1.802139
343.00 1.801611
343.10 1.801035
343.20 1.800457
343.30 1.799881
343.40 1.799341
343.50 1.798849
343.60 1.798359
343.70 1.797868
343.80 1.797377
343.90 1.796888
344.00 1.796414
344.10 1.795964
344.20 1.795515
344.30 1.795065
344.40 1.794568
344.50 1.794
344.60 1.793251
344.70 1.792921
344.80 1.792117
344.90 1.791788
345.00 1.791168
345.10 1.790603
345.20 1.790105
345.30 1.789707
345.40 1.789307
345.50 1.788827
345.60 1.788252
345.70 1.787689
345.80 1.787125
345.90 1.786562
346.00 1.786
346.10 1.785438
346.20 1.784896
346.30 1.784381
346.40 1.783867
346.50 1.783353
346.60 1.78284
346.70 1.782326
346.80 1.781813
346.90 1.7813
347.00 1.780788
347.10 1.780275
347.20 1.779763
347.30 1.779247
347.40 1.778732
347.50 1.778217
347.60 1.777704
347.70 1.777189
347.80 1.776676
347.90 1.776162
348.00 1.775649
348.10 1.775136
348.20 1.774624
348.30 1.774111
348.40 1.7736
348.50 1.773088
348.60 1.772577
348.70 1.771942
348.80 1.77133
348.90 1.770808
349.00 1.770286
349.10 1.769765
349.20 1.769243
349.30 1.768723
349.40 1.768202
349.50 1.767682
349.60 1.767162
349.70 1.766642
349.80 1.766123
349.90 1.765604
350.00 1.765085
350.10 1.764566
350.20 1.764049
350.30 1.763517
350.40 1.762967
350.50 1.762417
350.60 1.761868
350.70 1.761318
350.80 1.76077
350.90 1.760221
351.00 1.759674
351.10 1.759125
351.20 1.758578
351.30 1.758031
351.40 1.757496
351.50 1.756985
351.60 1.756474
351.70 1.755963
351.80 1.755452
351.90 1.754943
352.00 1.754432
352.10 1.753923
352.20 1.753524
352.30 1.753064
352.40 1.752499
352.50 1.751933
352.60 1.751368
352.70 1.750804
352.80 1.75024
352.90 1.749677
353.00 1.749114
353.10 1.74855
353.20 1.747987
353.30 1.747425
353.40 1.746864
353.50 1.746366
353.60 1.745886
353.70 1.745405
353.80 1.744925
353.90 1.744426
354.00 1.743891
354.10 1.743358
354.20 1.742825
354.30 1.742292
354.40 1.74176
354.50 1.741227
354.60 1.740695
354.70 1.740164
354.80 1.739614
354.90 1.739039
355.00 1.738465
355.10 1.737891
355.20 1.737317
355.30 1.736753
355.40 1.736189
355.50 1.735626
355.60 1.735062
355.70 1.734611
355.80 1.734208
355.90 1.733599
356.00 1.73297
356.10 1.732427
356.20 1.731885
356.30 1.731343
356.40 1.730801
356.50 1.730259
356.60 1.729718
356.70 1.729177
356.80 1.728636
356.90 1.728096
357.00 1.727557
357.10 1.727016
357.20 1.726477
357.30 1.725939
357.40 1.725387
357.50 1.724816
357.60 1.724244
357.70 1.723673
357.80 1.723109
357.90 1.722546
358.00 1.722
358.10 1.721459
358.20 1.720918
358.30 1.720378
358.40 1.719837
358.50 1.719297
358.60 1.718758
358.70 1.718218
358.80 1.717679
358.90 1.717141
359.00 1.716663
359.10 1.716294
359.20 1.715898
359.30 1.715317
359.40 1.714737
359.50 1.714106
359.60 1.713465
359.70 1.712822
359.80 1.712364
359.90 1.711906
360.00 1.711417
360.10 1.71087
360.20 1.710325
360.30 1.709779
360.40 1.709234
360.50 1.708689
360.60 1.707902
360.70 1.707387
360.80 1.706873
360.90 1.706359
361.00 1.705968
361.10 1.705417
361.20 1.704665
361.30 1.704152
361.40 1.703619
361.50 1.703128
361.60 1.702694
361.70 1.701968
361.80 1.701346
361.90 1.700909
362.00 1.700473
362.10 1.699874
362.20 1.699261
362.30 1.6987
362.40 1.698137
362.50 1.697576
362.60 1.697016
362.70 1.696393
362.80 1.696075
362.90 1.695566
363.00 1.695057
363.10 1.694513
363.20 1.69397
363.30 1.693116
363.40 1.692716
363.50 1.692104
363.60 1.6916
363.70 1.690906
363.80 1.690591
363.90 1.689965
364.00 1.68934
364.10 1.688716
364.20 1.688092
364.30 1.687602
364.40 1.687147
364.50 1.68665
364.60 1.686146
364.70 1.685644
364.80 1.685141
364.90 1.684429
365.00 1.683717
365.10 1.683217
365.20 1.682718
365.30 1.682218
365.40 1.681718
365.50 1.68122
365.60 1.680721
365.70 1.679993
365.80 1.679266
365.90 1.678761
366.00 1.67831
366.10 1.677806
366.20 1.677301
366.30 1.676799
366.40 1.676295
366.50 1.675409
366.60 1.674915
366.70 1.674318
366.80 1.673722
366.90 1.673148
367.00 1.672611
367.10 1.672076
367.20 1.671541
367.30 1.671006
367.40 1.670471
367.50 1.670008
367.60 1.669562
367.70 1.668982
367.80 1.668404
367.90 1.667825
368.00 1.667181
368.10 1.666686
368.20 1.666109
368.30 1.665531
368.40 1.664953
368.50 1.664375
368.60 1.663798
368.70 1.663221
368.80 1.662644
368.90 1.662216
369.00 1.661646
369.10 1.660974
369.20 1.66049
369.30 1.660003
369.40 1.659517
369.50 1.659031
369.60 1.658339
369.70 1.657647
369.80 1.657082
369.90 1.65652
370.00 1.655958
370.10 1.655697
370.20 1.655019
370.30 1.654331
370.40 1.653849
370.50 1.653367
370.60 1.652885
370.70 1.652402
370.80 1.651715
370.90 1.651028
371.00 1.650547
371.10 1.650068
371.20 1.649383
371.30 1.648698
371.40 1.648329
371.50 1.647745
371.60 1.647162
371.70 1.64658
371.80 1.645997
371.90 1.645415
372.00 1.645056
372.10 1.644462
372.20 1.643918
372.30 1.643373
372.40 1.642829
372.50 1.642285
372.60 1.641741
372.70 1.641198
372.80 1.640519
372.90 1.639841
373.00 1.639366
373.10 1.638893
373.20 1.638217
373.30 1.637542
373.40 1.637069
373.50 1.636595
373.60 1.636122
373.70 1.635247
373.80 1.634863
373.90 1.634303
374.00 1.633731
374.10 1.63316
374.20 1.632588
374.30 1.632017
374.40 1.631397
374.50 1.631067
374.60 1.630505
374.70 1.629936
374.80 1.629367
374.90 1.628799
375.00 1.628197
375.10 1.627596
375.20 1.626996
375.30 1.626471
375.40 1.625947
375.50 1.625422
375.60 1.624899
375.70 1.624376
375.80 1.623853
375.90 1.623331
376.00 1.622467
376.10 1.621948
376.20 1.621433
376.30 1.620917
376.40 1.620402
376.50 1.619858
376.60 1.619272
376.70 1.618686
376.80 1.618102
376.90 1.61752
377.00 1.616939
377.10 1.616359
377.20 1.615798
377.30 1.615311
377.40 1.614825
377.50 1.614338
377.60 1.613741
377.70 1.613143
377.80 1.612547
377.90 1.61195
378.00 1.611252
378.10 1.610716
378.20 1.610182
378.30 1.60965
378.40 1.609118
378.50 1.608585
378.60 1.608054
378.70 1.607522
378.80 1.606992
378.90 1.606452
379.00 1.605895
379.10 1.605204
379.20 1.604514
379.30 1.603936
379.40 1.603469
379.50 1.603002
379.60 1.602516
379.70 1.60198
379.80 1.601374
379.90 1.600768
380.00 1.600163
380.10 1.599558
380.20 1.598954
380.30 1.59835
380.40 1.597746
380.50 1.597142
380.60 1.596801
380.70 1.596226
380.80 1.595652
380.90 1.595079
381.00 1.594506
381.10 1.593912
381.20 1.593393
381.30 1.592846
381.40 1.592394
381.50 1.591757
381.60 1.591172
381.70 1.590595
381.80 1.590148
381.90 1.589315
382.00 1.588869
382.10 1.588423
382.20 1.587745
382.30 1.5873
382.40 1.586806
382.50 1.586239
382.60 1.585672
382.70 1.584983
382.80 1.584289
382.90 1.58373
383.00 1.583172
383.10 1.582613
383.20 1.582043
383.30 1.581429
383.40 1.580841
383.50 1.58029
383.60 1.579871
383.70 1.5793
383.80 1.578729
383.90 1.578158
384.00 1.577588
384.10 1.577017
384.20 1.576447
384.30 1.575878
384.40 1.575317
384.50 1.574764
384.60 1.574212
384.70 1.573658
384.80 1.573144
384.90 1.572671
385.00 1.572017
385.10 1.571374
385.20 1.571014
385.30 1.570391
385.40 1.569805
385.50 1.569255
385.60 1.568706
385.70 1.568158
385.80 1.5676
385.90 1.567009
386.00 1.566441
386.10 1.565899
386.20 1.56538
386.30 1.564861
386.40 1.564197
386.50 1.563542
386.60 1.562955
386.70 1.562523
386.80 1.561809
386.90 1.561284
387.00 1.560854
387.10 1.560056
387.20 1.559616
387.30 1.559186
387.40 1.558479
387.50 1.557953
387.60 1.557562
387.70 1.556946
387.80 1.556331
387.90 1.555715
388.00 1.555153
388.10 1.554633
388.20 1.553951
388.30 1.553388
388.40 1.552824
388.50 1.552294
388.60 1.551753
388.70 1.551292
388.80 1.550669
388.90 1.550104
389.00 1.5495
389.10 1.549035
389.20 1.548458
389.30 1.547797
389.40 1.547383
389.50 1.546815
389.60 1.546112
389.70 1.545665
389.80 1.545061
389.90 1.544458
390.00 1.543855
390.10 1.543252
390.20 1.54265
390.30 1.542099
390.40 1.541606
390.50 1.541113
390.60 1.540622
390.70 1.54013
390.80 1.539594
390.90 1.539015
391.00 1.538331
391.10 1.537723
391.20 1.537183
391.30 1.536747
391.40 1.536145
391.50 1.535544
391.60 1.534943
391.70 1.534344
391.80 1.533744
391.90 1.533219
392.00 1.532706
392.10 1.532083
392.20 1.531501
392.30 1.531155
392.40 1.530616
392.50 1.529836
392.60 1.529422
392.70 1.528707
392.80 1.528229
392.90 1.527519
393.00 1.526936
393.10 1.526386
393.20 1.525866
393.30 1.525272
393.40 1.524753
393.50 1.524251
393.60 1.523699
393.70 1.523065
393.80 1.522671
393.90 1.52208
394.00 1.521472
394.10 1.520873
394.20 1.520469
394.30 1.519882
394.40 1.519141
394.50 1.518703
394.60 1.518135
394.70 1.51756
394.80 1.516957
394.90 1.516361
395.00 1.515942
395.10 1.515428
395.20 1.514862
395.30 1.514214
395.40 1.513565
395.50 1.513045
395.60 1.512572
395.70 1.512082
395.80 1.511544
395.90 1.511007
396.00 1.510449
396.10 1.509734
396.20 1.509152
396.30 1.508522
396.40 1.508118
396.50 1.507358
396.60 1.506955
396.70 1.506322
396.80 1.505794
396.90 1.505393
397.00 1.504634
397.10 1.504174
397.20 1.503557
397.30 1.503107
397.40 1.502462
397.50 1.501818
397.60 1.501188
397.70 1.500685
397.80 1.500183
397.90 1.499681
398.00 1.499181
398.10 1.498682
398.20 1.498133
398.30 1.497526
398.40 1.496923
398.50 1.496444
398.60 1.495768
398.70 1.495133
398.80 1.494527
398.90 1.493964
399.00 1.493476
399.10 1.493096
399.20 1.49251
399.30 1.491925
399.40 1.49134
399.50 1.490755
399.60 1.490217
399.70 1.489696
399.80 1.489176
399.90 1.488655
400.00 1.488129
400.10 1.487385
400.20 1.486888
400.30 1.486362
400.40 1.485758
400.50 1.485117
400.60 1.484503
400.70 1.483938
400.80 1.483596
400.90 1.482912
401.00 1.482466
401.10 1.481726
401.20 1.481263
401.30 1.480861
401.40 1.480306
401.50 1.479697
401.60 1.479094
401.70 1.478627
401.80 1.477963
401.90 1.47741
402.00 1.476841
402.10 1.476454
402.20 1.47572
402.30 1.475187
402.40 1.474601
402.50 1.474216
402.60 1.473484
402.70 1.473099
402.80 1.472367
402.90 1.471775
403.00 1.471218
403.10 1.470869
403.20 1.470148
403.30 1.469686
403.40 1.469028
403.50 1.468462
403.60 1.467947
403.70 1.467536
403.80 1.466816
403.90 1.466286
404.00 1.465703
404.10 1.465322
404.20 1.464769
404.30 1.464217
404.40 1.463493
404.50 1.462942
404.60 1.46239
404.70 1.462011
404.80 1.461299
404.90 1.46091
405.00 1.460189
405.10 1.459664
405.20 1.459188
405.30 1.458713
405.40 1.458165
405.50 1.457617
405.60 1.45707
405.70 1.456522
405.80 1.455975
405.90 1.455429
406.00 1.454849
406.10 1.45427
406.20 1.453692
406.30 1.453114
406.40 1.452532
406.50 1.451903
406.60 1.451443
406.70 1.450835
406.80 1.450255
406.90 1.449648
407.00 1.449106
407.10 1.448564
407.20 1.448022
407.30 1.447481
407.40 1.44694
407.50 1.446399
407.60 1.445859
407.70 1.445319
407.80 1.444779
407.90 1.444241
408.00 1.443718
408.10 1.443159
408.20 1.442539
408.30 1.441943
408.40 1.441346
408.50 1.441007
408.60 1.440419
408.70 1.439831
408.80 1.439273
408.90 1.438894
409.00 1.43832
409.10 1.437745
409.20 1.437172
409.30 1.436598
409.40 1.436025
409.50 1.435443
409.60 1.43486
409.70 1.434286
409.80 1.433741
409.90 1.4332
410.00 1.432826
410.10 1.432128
410.20 1.431534
410.30 1.430967
410.40 1.430421
410.50 1.429945
410.60 1.429468
410.70 1.428974
410.80 1.428414
410.90 1.427853
411.00 1.427264
411.10 1.426664
411.20 1.426064
411.30 1.425503
411.40 1.42509
411.50 1.424515
411.60 1.42394
411.70 1.423375
411.80 1.42285
411.90 1.422292
412.00 1.421602
412.10 1.421243
412.20 1.420554
412.30 1.420195
412.40 1.419507
412.50 1.418866
412.60 1.418414
412.70 1.417877
412.80 1.417319
412.90 1.416744
413.00 1.416407
413.10 1.415852
413.20 1.415298
413.30 1.414743
413.40 1.414189
413.50 1.41361
413.60 1.412966
413.70 1.412448
413.80 1.41193
413.90 1.411411
414.00 1.410894
414.10 1.410376
414.20 1.40982
414.30 1.40914
414.40 1.408721
414.50 1.408108
414.60 1.407468
414.70 1.406952
414.80 1.406438
414.90 1.405923
415.00 1.405409
415.10 1.404895
415.20 1.404367
415.30 1.403793
415.40 1.403219
415.50 1.402646
415.60 1.402088
415.70 1.401529
415.80 1.40097
415.90 1.400403
416.00 1.399837
416.10 1.399281
416.20 1.398764
416.30 1.398248
416.40 1.397732
416.50 1.397217
416.60 1.396708
416.70 1.396196
416.80 1.395525
416.90 1.39503
417.00 1.394511
417.10 1.393847
417.20 1.39334
417.30 1.392833
417.40 1.39228
417.50 1.391727
417.60 1.391207
417.70 1.390812
417.80 1.390253
417.90 1.389695
418.00 1.389138
418.10 1.388581
418.20 1.388025
418.30 1.387464
418.40 1.386835
418.50 1.386312
418.60 1.385789
418.70 1.385266
418.80 1.384745
418.90 1.384222
419.00 1.383701
419.10 1.383181
419.20 1.382659
419.30 1.382139
419.40 1.381592
419.50 1.381047
419.60 1.380501
419.70 1.379951
419.80 1.379401
419.90 1.378856
420.00 1.378325
420.10 1.377793
420.20 1.377263
420.30 1.376733
420.40 1.376202
420.50 1.375672
420.60 1.375142
420.70 1.374614
420.80 1.374085
420.90 1.373556
421.00 1.373018
421.10 1.37248
421.20 1.371936
421.30 1.371376
421.40 1.370816
421.50 1.370256
421.60 1.369696
421.70 1.369136
421.80 1.368578
421.90 1.368035
422.00 1.367541
422.10 1.367038
422.20 1.366489
422.30 1.365942
422.40 1.365395
422.50 1.364861
422.60 1.364326
422.70 1.363792
422.80 1.363258
422.90 1.362725
423.00 1.362192
423.10 1.361659
423.20 1.361127
423.30 1.360595
423.40 1.360063
423.50 1.359532
423.60 1.359002
423.70 1.358471
423.80 1.357941
423.90 1.35741
424.00 1.356881
424.10 1.356353
424.20 1.355823
424.30 1.355295
424.40 1.354744
424.50 1.354199
424.60 1.353656
424.70 1.353114
424.80 1.352571
424.90 1.352029
425.00 1.351487
425.10 1.350945
425.20 1.350405
425.30 1.349864
425.40 1.349325
425.50 1.348793
425.60 1.348263
425.70 1.347732
425.80 1.347202
425.90 1.346673
426.00 1.346142
426.10 1.345614
426.20 1.345084
426.30 1.344556
426.40 1.344029
426.50 1.3435
426.60 1.342973
426.70 1.342446
426.80 1.341919
426.90 1.341393
427.00 1.340862
427.10 1.340332
427.20 1.339802
427.30 1.339273
427.40 1.338744
427.50 1.338214
427.60 1.337686
427.70 1.337159
427.80 1.33663
427.90 1.336103
428.00 1.335576
428.10 1.335049
428.20 1.334522
428.30 1.333997
428.40 1.333472
428.50 1.332946
428.60 1.332421
428.70 1.331896
428.80 1.331371
428.90 1.330837
429.00 1.330301
429.10 1.329767
429.20 1.329233
429.30 1.328699
429.40 1.328166
429.50 1.327632
429.60 1.3271
429.70 1.326568
429.80 1.326036
429.90 1.325505
430.00 1.324974
430.10 1.324442
430.20 1.323912
430.30 1.323381
430.40 1.322852
430.50 1.322323
430.60 1.321793
430.70 1.321265
430.80 1.320737
430.90 1.320208
431.00 1.319681
431.10 1.319153
431.20 1.318626
431.30 1.3181
431.40 1.317579
431.50 1.31706
431.60 1.31654
431.70 1.316021
431.80 1.315501
431.90 1.314983
432.00 1.314464
432.10 1.313947
432.20 1.313429
432.30 1.312912
432.40 1.312395
432.50 1.311879
432.60 1.311362
432.70 1.310846
432.80 1.31033
432.90 1.309816
433.00 1.309301
433.10 1.308786
433.20 1.308272
433.30 1.307756
433.40 1.307218
433.50 1.306679
433.60 1.306142
433.70 1.305605
433.80 1.305038
433.90 1.304437
434.00 1.3039
434.10 1.303405
434.20 1.302909
434.30 1.302413
434.40 1.301919
434.50 1.301424
434.60 1.30093
434.70 1.300436
434.80 1.299939
434.90 1.299403
435.00 1.298867
435.10 1.29833
435.20 1.297795
435.30 1.29726
435.40 1.296724
435.50 1.29619
435.60 1.295656
435.70 1.295122
435.80 1.294588
435.90 1.294056
436.00 1.293522
436.10 1.29299
436.20 1.292458
436.30 1.291996
436.40 1.291605
436.50 1.291053
436.60 1.290501
436.70 1.289949
436.80 1.289397
436.90 1.288846
437.00 1.288295
437.10 1.287745
437.20 1.287237
437.30 1.286768
437.40 1.286295
437.50 1.285756
437.60 1.285218
437.70 1.284679
437.80 1.284141
437.90 1.283604
438.00 1.283071
438.10 1.282598
438.20 1.282124
438.30 1.2816
438.40 1.281026
438.50 1.280588
438.60 1.28014
438.70 1.279556
438.80 1.278973
438.90 1.278683
439.00 1.2781
439.10 1.277518
439.20 1.276942
439.30 1.276434
439.40 1.275925
439.50 1.275418
439.60 1.274905
439.70 1.274467
439.80 1.274067
439.90 1.273554
440.00 1.273042
440.10 1.272529
440.20 1.272017
440.30 1.271497
440.40 1.270978
440.50 1.270459
440.60 1.26994
440.70 1.269423
440.80 1.268904
440.90 1.268387
441.00 1.267869
441.10 1.267353
441.20 1.266831
441.30 1.266257
441.40 1.265728
441.50 1.265253
441.60 1.264779
441.70 1.264254
441.80 1.263725
441.90 1.263197
442.00 1.26267
442.10 1.262143
442.20 1.261616
442.30 1.261089
442.40 1.260586
442.50 1.26011
442.60 1.259635
442.70 1.259123
442.80 1.258554
442.90 1.257986
443.00 1.257485
443.10 1.257066
443.20 1.25657
443.30 1.256003
443.40 1.2555
443.50 1.255078
443.60 1.254591
443.70 1.254026
443.80 1.25346
443.90 1.252895
444.00 1.252396
444.10 1.251975
444.20 1.251489
444.30 1.250934
444.40 1.250479
444.50 1.250025
444.60 1.249523
444.70 1.248961
444.80 1.248436
444.90 1.247944
445.00 1.247453
445.10 1.246963
445.20 1.246462
445.30 1.245951
445.40 1.245439
445.50 1.244928
445.60 1.244417
445.70 1.243907
445.80 1.243407
445.90 1.242919
446.00 1.242432
446.10 1.241944
446.20 1.241425
446.30 1.240869
446.40 1.24035
446.50 1.239865
446.60 1.23938
446.70 1.238897
446.80 1.238375
446.90 1.237821
447.00 1.237268
447.10 1.236715
447.20 1.236246
447.30 1.23589
447.40 1.235337
447.50 1.234786
447.60 1.234234
447.70 1.233682
447.80 1.233197
447.90 1.232791
448.00 1.232335
448.10 1.231832
448.20 1.231329
448.30 1.230827
448.40 1.230324
448.50 1.229823
448.60 1.229296
448.70 1.228749
448.80 1.228206
448.90 1.227719
449.00 1.227232
449.10 1.226747
449.20 1.226261
449.30 1.225747
449.40 1.225202
449.50 1.224657
449.60 1.224151
449.70 1.223681
449.80 1.223211
449.90 1.222741
450.00 1.222271
450.10 1.221802
450.20 1.221334
450.30 1.220865
450.40 1.220369
450.50 1.219873
450.60 1.219378
450.70 1.218883
450.80 1.218389
450.90 1.217895
451.00 1.217355
451.10 1.216815
451.20 1.216276
451.30 1.215737
451.40 1.215336
451.50 1.214936
451.60 1.214398
451.70 1.21386
451.80 1.213323
451.90 1.212786
452.00 1.212249
452.10 1.211713
452.20 1.211246
452.30 1.21078
452.40 1.210313
452.50 1.209847
452.60 1.209313
452.70 1.20881
452.80 1.208336
452.90 1.207863
453.00 1.207391
453.10 1.206919
453.20 1.206428
453.30 1.205938
453.40 1.205448
453.50 1.204958
453.60 1.204469
453.70 1.203979
453.80 1.203471
453.90 1.202941
454.00 1.202412
454.10 1.201882
454.20 1.201402
454.30 1.200924
454.40 1.200445
454.50 1.199966
454.60 1.199489
454.70 1.199011
454.80 1.198536
454.90 1.19806
455.00 1.197586
455.10 1.197111
455.20 1.196637
455.30 1.196163
455.40 1.195689
455.50 1.195216
455.60 1.194743
455.70 1.19427
455.80 1.193746
455.90 1.193222
456.00 1.192699
456.10 1.192183
456.20 1.191686
456.30 1.191188
456.40 1.190692
456.50 1.190195
456.60 1.189699
456.70 1.189203
456.80 1.188707
456.90 1.188212
457.00 1.187718
457.10 1.187223
457.20 1.186716
457.30 1.186234
457.40 1.185753
457.50 1.185272
457.60 1.184793
457.70 1.184312
457.80 1.183832
457.90 1.183353
458.00 1.182874
458.10 1.182395
458.20 1.181916
458.30 1.181439
458.40 1.18096
458.50 1.180483
458.60 1.180005
458.70 1.179535
458.80 1.179068
458.90 1.178601
459.00 1.178134
459.10 1.177667
459.20 1.177202
459.30 1.176708
459.40 1.176214
459.50 1.175721
459.60 1.175228
459.70 1.174735
459.80 1.174243
459.90 1.173751
460.00 1.173258
460.10 1.172768
460.20 1.172276
460.30 1.171785
460.40 1.171295
460.50 1.170805
460.60 1.170316
460.70 1.16985
460.80 1.169395
460.90 1.168941
461.00 1.168487
461.10 1.168034
461.20 1.167542
461.30 1.167037
461.40 1.166531
461.50 1.166026
461.60 1.16552
461.70 1.165016
461.80 1.164548
461.90 1.164081
462.00 1.163613
462.10 1.163147
462.20 1.162681
462.30 1.162215
462.40 1.161749
462.50 1.161283
462.60 1.160818
462.70 1.160353
462.80 1.159889
462.90 1.159424
463.00 1.15896
463.10 1.158496
463.20 1.158006
463.30 1.157507
463.40 1.157007
463.50 1.156509
463.60 1.156009
463.70 1.15551
463.80 1.155013
463.90 1.15454
464.00 1.154075
464.10 1.15361
464.20 1.153146
464.30 1.152681
464.40 1.152217
464.50 1.151753
464.60 1.151289
464.70 1.150804
464.80 1.150309
464.90 1.149813
465.00 1.14932
465.10 1.148825
465.20 1.148331
465.30 1.147865
465.40 1.147416
465.50 1.146968
465.60 1.14652
465.70 1.146073
465.80 1.145625
465.90 1.145142
466.00 1.144651
466.10 1.14416
466.20 1.143669
466.30 1.143196
466.40 1.142733
466.50 1.142269
466.60 1.141805
466.70 1.141341
466.80 1.140878
466.90 1.140415
467.00 1.139953
467.10 1.139491
467.20 1.139029
467.30 1.138549
467.40 1.138062
467.50 1.137575
467.60 1.137088
467.70 1.136602
467.80 1.136117
467.90 1.135631
468.00 1.135145
468.10 1.134661
468.20 1.134176
468.30 1.133691
468.40 1.133208
468.50 1.132724
468.60 1.132273
468.70 1.132014
468.80 1.131531
468.90 1.131048
469.00 1.130566
469.10 1.130084
469.20 1.129602
469.30 1.12912
469.40 1.12864
469.50 1.128159
469.60 1.127678
469.70 1.127199
469.80 1.126719
469.90 1.126239
470.00 1.12576
470.10 1.125281
470.20 1.124803
470.30 1.124324
470.40 1.123846
470.50 1.123369
470.60 1.122942
470.70 1.122528
470.80 1.122115
470.90 1.121702
471.00 1.121238
471.10 1.120763
471.20 1.120287
471.30 1.119811
471.40 1.119336
471.50 1.118861
471.60 1.118387
471.70 1.117913
471.80 1.117439
471.90 1.116965
472.00 1.116493
472.10 1.11602
472.20 1.115547
472.30 1.115074
472.40 1.114603
472.50 1.114131
472.60 1.113659
472.70 1.113188
472.80 1.112737
472.90 1.112292
473.00 1.111847
473.10 1.111402
473.20 1.110957
473.30 1.110513
473.40 1.110069
473.50 1.109625
473.60 1.109182
473.70 1.108739
473.80 1.108276
473.90 1.107808
474.00 1.107341
474.10 1.106874
474.20 1.106407
474.30 1.105941
474.40 1.105475
474.50 1.105008
474.60 1.104543
474.70 1.104077
474.80 1.103612
474.90 1.103148
475.00 1.102684
475.10 1.102219
475.20 1.101755
475.30 1.101291
475.40 1.100828
475.50 1.100366
475.60 1.099903
475.70 1.099441
475.80 1.098978
475.90 1.098516
476.00 1.098055
476.10 1.097594
476.20 1.097133
476.30 1.096672
476.40 1.096212
476.50 1.095752
476.60 1.095292
476.70 1.094832
476.80 1.094373
476.90 1.093926
477.00 1.093481
477.10 1.093036
477.20 1.092592
477.30 1.092148
477.40 1.091704
477.50 1.09126
477.60 1.090817
477.70 1.090374
477.80 1.089931
477.90 1.089489
478.00 1.089046
478.10 1.088604
478.20 1.088163
478.30 1.087721
478.40 1.08728
478.50 1.086839
478.60 1.086399
478.70 1.085949
478.80 1.085495
478.90 1.085042
479.00 1.084589
479.10 1.084136
479.20 1.083684
479.30 1.083231
479.40 1.08278
479.50 1.082329
479.60 1.081877
479.70 1.081426
479.80 1.080975
479.90 1.080525
480.00 1.080075
480.10 1.079625
480.20 1.079175
480.30 1.078726
480.40 1.078276
480.50 1.077828
480.60 1.077379
480.70 1.076931
480.80 1.076484
480.90 1.076036
481.00 1.075589
481.10 1.075142
481.20 1.074695
481.30 1.074248
481.40 1.073802
481.50 1.073356
481.60 1.07291
481.70 1.072465
481.80 1.072019
481.90 1.071575
482.00 1.07113
482.10 1.070686
482.20 1.07024
482.30 1.069779
482.40 1.069318
482.50 1.068859
482.60 1.068399
482.70 1.067939
482.80 1.067479
482.90 1.06702
483.00 1.066561
483.10 1.066102
483.20 1.065643
483.30 1.065186
483.40 1.064728
483.50 1.064271
483.60 1.063813
483.70 1.063374
483.80 1.062934
483.90 1.062495
484.00 1.062056
484.10 1.061617
484.20 1.061179
484.30 1.06074
484.40 1.060303
484.50 1.059865
484.60 1.059428
484.70 1.05899
484.80 1.058554
484.90 1.058117
485.00 1.057681
485.10 1.057245
485.20 1.056809
485.30 1.056374
485.40 1.055938
485.50 1.055504
485.60 1.055069
485.70 1.054635
485.80 1.0542
485.90 1.053766
486.00 1.053332
486.10 1.052899
486.20 1.052466
486.30 1.052033
486.40 1.051601
486.50 1.051168
486.60 1.050736
486.70 1.050301
486.80 1.04981
486.90 1.049322
487.00 1.048832
487.10 1.048343
487.20 1.047913
487.30 1.047483
487.40 1.047053
487.50 1.046623
487.60 1.046194
487.70 1.045765
487.80 1.045337
487.90 1.044908
488.00 1.04448
488.10 1.044052
488.20 1.043625
488.30 1.043197
488.40 1.042769
488.50 1.042343
488.60 1.041916
488.70 1.04149
488.80 1.041064
488.90 1.040638
489.00 1.040203
489.10 1.039746
489.20 1.039288
489.30 1.038831
489.40 1.038374
489.50 1.037919
489.60 1.037462
489.70 1.037006
489.80 1.036583
489.90 1.03616
490.00 1.035736
490.10 1.035314
490.20 1.034891
490.30 1.034469
490.40 1.034048
490.50 1.033626
490.60 1.033205
490.70 1.032784
490.80 1.032362
490.90 1.031942
491.00 1.031522
491.10 1.031102
491.20 1.030682
491.30 1.030263
491.40 1.029828
491.50 1.029191
491.60 1.028773
491.70 1.028355
491.80 1.027937
491.90 1.027519
492.00 1.0271
492.10 1.026683
492.20 1.026266
492.30 1.025849
492.40 1.025433
492.50 1.025017
492.60 1.0246
492.70 1.024184
492.80 1.023769
492.90 1.023353
493.00 1.022935
493.10 1.022475
493.20 1.022014
493.30 1.021554
493.40 1.021094
493.50 1.020635
493.60 1.020222
493.70 1.019808
493.80 1.019396
493.90 1.018983
494.00 1.018571
494.10 1.018158
494.20 1.017746
494.30 1.017334
494.40 1.016923
494.50 1.016512
494.60 1.016091
494.70 1.015554
494.80 1.01505
494.90 1.014639
495.00 1.014229
495.10 1.01382
495.20 1.013411
495.30 1.013002
495.40 1.012592
495.50 1.012183
495.60 1.011775
495.70 1.011367
495.80 1.010959
495.90 1.010551
496.00 1.010144
496.10 1.009678
496.20 1.009101
496.30 1.008695
496.40 1.008289
496.50 1.007882
496.60 1.007476
496.70 1.007071
496.80 1.006665
496.90 1.00626
497.00 1.005855
497.10 1.00545
497.20 1.005046
497.30 1.004622
497.40 1.004141
497.50 1.003659
497.60 1.003203
497.70 1.0028
497.80 1.002398
497.90 1.001995
498.00 1.001592
498.10 1.001191
498.20 1.000789
498.30 1.000388
498.40 0.9999853
498.50 0.999584
498.60 0.9991838
498.70 0.9986703
498.80 0.9981568
498.90 0.9977565
499.00 0.9973562
499.10 0.996957
499.20 0.9965577
499.30 0.9961584
499.40 0.9957591
499.50 0.9953608
499.60 0.9949626
499.70 0.9945603
499.80 0.9941153
499.90 0.9936704
500.00 0.9932254
500.10 0.9927808
500.20 0.9923518
500.30 0.9919551
500.40 0.9915587
500.50 0.9911625
500.60 0.9907665
500.70 0.9903708
500.80 0.9899537
500.90 0.9894909
501.00 0.9890284
501.10 0.9885662
501.20 0.9881718
501.30 0.9877776
501.40 0.9873836
501.50 0.9869898
501.60 0.9865963
501.70 0.9862031
501.80 0.9858101
501.90 0.9854173
502.00 0.984993
502.10 0.9845014
502.20 0.9840172
502.30 0.9836254
502.40 0.9832339
502.50 0.9828426
502.60 0.9824515
502.70 0.9820607
502.80 0.9816701
502.90 0.9812797
503.00 0.9808721
503.10 0.9804274
503.20 0.979983
503.30 0.979539
503.40 0.9791093
503.50 0.9787204
503.60 0.9783318
503.70 0.9779433
503.80 0.9775552
503.90 0.9771672
504.00 0.976762
504.10 0.97632
504.20 0.9758782
504.30 0.9754367
504.40 0.9750098
504.50 0.9746232
504.60 0.9742369
504.70 0.973851
504.80 0.9734652
504.90 0.9730796
505.00 0.9724736
505.10 0.9720886
505.20 0.9717037
505.30 0.9713192
505.40 0.9709348
505.50 0.9705508
505.60 0.9701553
505.70 0.9697352
505.80 0.9693156
505.90 0.9688962
506.00 0.9684769
506.10 0.968058
506.20 0.9676423
506.30 0.9672356
506.40 0.9668291
506.50 0.9664228
506.60 0.9660168
506.70 0.965611
506.80 0.9652054
506.90 0.9648002
507.00 0.9643952
507.10 0.9639982
507.20 0.963611
507.30 0.9632038
507.40 0.9627969
507.50 0.9623901
507.60 0.9619837
507.70 0.9615775
507.80 0.9611714
507.90 0.9607658
508.00 0.9603603
508.10 0.959955
508.20 0.9595501
508.30 0.9591454
508.40 0.9587408
508.50 0.9583366
508.60 0.9579325
508.70 0.9575288
508.80 0.9571324
508.90 0.9567563
509.00 0.9563803
509.10 0.9559932
509.20 0.9555817
509.30 0.9551705
509.40 0.9547596
509.50 0.9543489
509.60 0.9539384
509.70 0.9535282
509.80 0.9531183
509.90 0.9527086
510.00 0.9522991
510.10 0.9518898
510.20 0.9514809
510.30 0.9510772
510.40 0.9506878
510.50 0.9502987
510.60 0.9499099
510.70 0.9495212
510.80 0.9491329
510.90 0.9487446
511.00 0.9483566
511.10 0.947969
511.20 0.9475815
511.30 0.9471943
511.40 0.9468072
511.50 0.9464205
511.60 0.9460294
511.70 0.9456293
511.80 0.9452294
511.90 0.9448296
512.00 0.9444302
512.10 0.944031
512.20 0.9436321
512.30 0.943231
512.40 0.9428237
512.50 0.9424166
512.60 0.9420097
512.70 0.9416031
512.80 0.9411968
512.90 0.9407907
513.00 0.9403848
513.10 0.9399792
513.20 0.9395739
513.30 0.9391687
513.40 0.9387638
513.50 0.9383591
513.60 0.9379548
513.70 0.9375507
513.80 0.9371467
513.90 0.9367431
514.00 0.9363517
514.10 0.9359627
514.20 0.9355738
514.30 0.9351852
514.40 0.9347968
514.50 0.9344087
514.60 0.9340207
514.70 0.9336331
514.80 0.9332455
514.90 0.9328584
515.00 0.9324713
515.10 0.9320845
515.20 0.931698
515.30 0.9313117
515.40 0.9309255
515.50 0.9305397
515.60 0.9301541
515.70 0.9297687
515.80 0.9293836
515.90 0.9289986
516.00 0.9286139
516.10 0.9282293
516.20 0.9278452
516.30 0.9274611
516.40 0.9270773
516.50 0.9266924
516.60 0.9263008
516.70 0.9259095
516.80 0.9255184
516.90 0.9251276
517.00 0.924737
517.10 0.9243465
517.20 0.9239564
517.30 0.9235664
517.40 0.9231767
517.50 0.9227873
517.60 0.922398
517.70 0.9220091
517.80 0.9216202
517.90 0.9212317
518.00 0.9208434
518.10 0.9204554
518.20 0.9200675
518.30 0.9196798
518.40 0.9192925
518.50 0.9189053
518.60 0.9185184
518.70 0.9181317
518.80 0.9177452
518.90 0.917359
519.00 0.916973
519.10 0.9165855
519.20 0.9161962
519.30 0.9158073
519.40 0.9154185
519.50 0.91503
519.60 0.9146416
519.70 0.9142536
519.80 0.9138657
519.90 0.913478
520.00 0.9130907
520.10 0.9127035
520.20 0.9123166
520.30 0.9119299
520.40 0.9115434
520.50 0.9111572
520.60 0.9107712
520.70 0.9103854
520.80 0.9099999
520.90 0.9096145
521.00 0.9092294
521.10 0.9088446
521.20 0.90846
521.30 0.9080756
521.40 0.9076914
521.50 0.9073074
521.60 0.9069237
521.70 0.9065402
521.80 0.906157
521.90 0.9057739
522.00 0.9053911
522.10 0.9050085
522.20 0.9046261
522.30 0.904244
522.40 0.9038621
522.50 0.9034804
522.60 0.9030989
522.70 0.9027177
522.80 0.9023367
522.90 0.9019559
523.00 0.9015754
523.10 0.901195
523.20 0.9008149
523.30 0.9004351
523.40 0.9000554
523.50 0.899676
523.60 0.8992968
523.70 0.8989178
523.80 0.898539
523.90 0.8981605
524.00 0.8977822
524.10 0.8974041
524.20 0.8970263
524.30 0.8966467
524.40 0.8962656
524.50 0.8958848
524.60 0.8955043
524.70 0.895124
524.80 0.894744
524.90 0.8943641
525.00 0.8939845
525.10 0.8936051
525.20 0.8932259
525.30 0.892847
525.40 0.8924683
525.50 0.8920897
525.60 0.8917114
525.70 0.8913334
525.80 0.8909556
525.90 0.8905779
526.00 0.8902005
526.10 0.8898234
526.20 0.8894465
526.30 0.8890697
526.40 0.8886932
526.50 0.8883169
526.60 0.8879408
526.70 0.887565
526.80 0.8871894
526.90 0.886814
527.00 0.8864389
527.10 0.8860638
527.20 0.8856892
527.30 0.8853146
527.40 0.8849403
527.50 0.8845662
527.60 0.8841924
527.70 0.8838187
527.80 0.8834454
527.90 0.8830721
528.00 0.8826992
528.10 0.8823264
528.20 0.881954
528.30 0.8815816
528.40 0.8812095
528.50 0.8808376
528.60 0.8804659
528.70 0.8800945
528.80 0.8797233
528.90 0.8793523
529.00 0.8789815
529.10 0.878611
529.20 0.8782406
529.30 0.8778704
529.40 0.8775005
529.50 0.8771309
529.60 0.8767618
529.70 0.8763929
529.80 0.8760242
529.90 0.8756557
530.00 0.8752875
530.10 0.8749195
530.20 0.8745518
530.30 0.8741842
530.40 0.8738168
530.50 0.8734496
530.60 0.8730827
530.70 0.872716
530.80 0.8723494
530.90 0.8719831
531.00 0.8716171
531.10 0.8712512
531.20 0.8708855
531.30 0.8705201
531.40 0.8701548
531.50 0.8697898
531.60 0.869425
531.70 0.8690604
531.80 0.868696
531.90 0.8683319
532.00 0.8679679
532.10 0.8676041
532.20 0.8672406
532.30 0.8668773
532.40 0.8665142
532.50 0.8661513
532.60 0.8657885
532.70 0.8654261
532.80 0.8650638
532.90 0.8647017
533.00 0.8643399
533.10 0.8639783
533.20 0.8636168
533.30 0.8632556
533.40 0.8628946
533.50 0.8625338
533.60 0.8621732
533.70 0.8618128
533.80 0.8614526
533.90 0.8610927
534.00 0.8607329
534.10 0.8603734
534.20 0.860014
534.30 0.8596549
534.40 0.859296
534.50 0.8589373
534.60 0.8585788
534.70 0.8582204
534.80 0.8578611
534.90 0.8574962
535.00 0.8571316
535.10 0.8567672
535.20 0.8564029
535.30 0.8560389
535.40 0.8556751
535.50 0.8553115
535.60 0.8549482
535.70 0.8545849
535.80 0.854222
535.90 0.8538593
536.00 0.8534968
536.10 0.8531344
536.20 0.8527723
536.30 0.8524105
536.40 0.8520487
536.50 0.8516873
536.60 0.8513261
536.70 0.850965
536.80 0.8506041
536.90 0.8502436
537.00 0.8498831
537.10 0.8495229
537.20 0.8491628
537.30 0.8488031
537.40 0.8484435
537.50 0.8480841
537.60 0.8477249
537.70 0.847366
537.80 0.8470072
537.90 0.8466487
538.00 0.8462903
538.10 0.8459323
538.20 0.8455743
538.30 0.8452165
538.40 0.8448591
538.50 0.8445018
538.60 0.8441447
538.70 0.8437878
538.80 0.8434311
538.90 0.8430747
539.00 0.8427184
539.10 0.8423623
539.20 0.8420065
539.30 0.8416509
539.40 0.8412954
539.50 0.8409402
539.60 0.8405851
539.70 0.8402304
539.80 0.8398757
539.90 0.8395213
540.00 0.8391671
540.10 0.8388131
540.20 0.8384595
540.30 0.8381064
540.40 0.8377535
540.50 0.8374007
540.60 0.8370482
540.70 0.8366958
540.80 0.8363436
540.90 0.8359917
541.00 0.83564
541.10 0.8352884
541.20 0.8349371
541.30 0.8345859
541.40 0.8342349
541.50 0.8338842
541.60 0.8335337
541.70 0.8331834
541.80 0.8328332
541.90 0.8324833
542.00 0.8321336
542.10 0.8317841
542.20 0.8314347
542.30 0.8310856
542.40 0.8307367
542.50 0.830388
542.60 0.8300395
542.70 0.8296911
542.80 0.829343
542.90 0.8289951
543.00 0.8286475
543.10 0.8282999
543.20 0.8279526
543.30 0.8276055
543.40 0.8272585
543.50 0.8269118
543.60 0.8265653
543.70 0.826219
543.80 0.8258729
543.90 0.8255269
544.00 0.8251812
544.10 0.8248357
544.20 0.8244903
544.30 0.8241453
544.40 0.8238003
544.50 0.8234556
544.60 0.823111
544.70 0.8227667
544.80 0.8224225
544.90 0.8220786
545.00 0.8217348
545.10 0.8213914
545.20 0.821048
545.30 0.8207048
545.40 0.8203619
545.50 0.8200191
545.60 0.819672
545.70 0.8193231
545.80 0.8189744
545.90 0.8186259
546.00 0.8182777
546.10 0.8179296
546.20 0.8175817
546.30 0.817234
546.40 0.8168866
546.50 0.8165392
546.60 0.8161922
546.70 0.8158454
546.80 0.8154986
546.90 0.8151522
547.00 0.8148059
547.10 0.8144598
547.20 0.8141139
547.30 0.8137682
547.40 0.8134228
547.50 0.8130775
547.60 0.8127324
547.70 0.8123875
547.80 0.8120428
547.90 0.8116983
548.00 0.811354
548.10 0.81101
548.20 0.810666
548.30 0.8103251
548.40 0.8099885
548.50 0.809652
548.60 0.8093157
548.70 0.8089797
548.80 0.8086438
548.90 0.8083081
549.00 0.8079726
549.10 0.8076372
549.20 0.8073021
549.30 0.8069671
549.40 0.8066323
549.50 0.8062978
549.60 0.8059634
549.70 0.8056293
549.80 0.8052952
549.90 0.8049614
550.00 0.8046278
550.10 0.8042944
550.20 0.8039611
550.30 0.8036281
550.40 0.8032952
550.50 0.8029626
550.60 0.80263
550.70 0.8022978
550.80 0.8019657
550.90 0.8016337
551.00 0.8013011
551.10 0.8009632
551.20 0.8006256
551.30 0.8002881
551.40 0.7999508
551.50 0.7996137
551.60 0.7992768
551.70 0.7989401
551.80 0.7986036
551.90 0.7982673
552.00 0.7979312
552.10 0.7975953
552.20 0.7972595
552.30 0.7969239
552.40 0.7965885
552.50 0.7962534
552.60 0.7959184
552.70 0.7955836
552.80 0.7952491
552.90 0.7949146
553.00 0.7945804
553.10 0.7942463
553.20 0.7939125
553.30 0.7935789
553.40 0.7932454
553.50 0.7929121
553.60 0.7925791
553.70 0.7922461
553.80 0.7919094
553.90 0.7915703
554.00 0.7912313
554.10 0.7908925
554.20 0.7905539
554.30 0.7902155
554.40 0.7898773
554.50 0.7895392
554.60 0.7892014
554.70 0.7888638
554.80 0.7885263
554.90 0.7881891
555.00 0.787852
555.10 0.7875152
555.20 0.7871785
555.30 0.786842
555.40 0.7865057
555.50 0.7861696
555.60 0.7858337
555.70 0.785498
555.80 0.7851625
555.90 0.7848271
556.00 0.7844919
556.10 0.784157
556.20 0.7838222
556.30 0.7834877
556.40 0.7831533
556.50 0.7828192
556.60 0.7824891
556.70 0.782159
556.80 0.7818292
556.90 0.7814995
557.00 0.78117
557.10 0.7808407
557.20 0.7805116
557.30 0.7801827
557.40 0.779854
557.50 0.7795254
557.60 0.7791971
557.70 0.7788689
557.80 0.7785409
557.90 0.7782131
558.00 0.7778855
558.10 0.777558
558.20 0.7772308
558.30 0.7769037
558.40 0.7765768
558.50 0.7762502
558.60 0.7759237
558.70 0.7755973
558.80 0.7752711
558.90 0.7749452
559.00 0.7746194
559.10 0.7742938
559.20 0.7739684
559.30 0.7736431
559.40 0.7733182
559.50 0.7729933
559.60 0.7726686
559.70 0.7723441
559.80 0.7720198
559.90 0.7716956
560.00 0.7713717
560.10 0.7710479
560.20 0.7707243
560.30 0.7704009
560.40 0.7700778
560.50 0.7697547
560.60 0.7694319
560.70 0.7691092
560.80 0.7687867
560.90 0.7684644
561.00 0.7681422
561.10 0.7678203
561.20 0.7674984
561.30 0.7671768
561.40 0.7668554
561.50 0.7665342
561.60 0.7662132
561.70 0.7658923
561.80 0.7655716
561.90 0.7652511
562.00 0.7649308
562.10 0.764612
562.20 0.7642958
562.30 0.7639796
562.40 0.7636636
562.50 0.7633479
562.60 0.7630322
562.70 0.7627168
562.80 0.7624015
562.90 0.7620865
563.00 0.7617715
563.10 0.7614568
563.20 0.7611422
563.30 0.7608278
563.40 0.7605137
563.50 0.7601996
563.60 0.7598858
563.70 0.7595721
563.80 0.7592585
563.90 0.7589452
564.00 0.758632
564.10 0.7583191
564.20 0.7580063
564.30 0.7576936
564.40 0.7573812
564.50 0.7570689
564.60 0.7567567
564.70 0.7564448
564.80 0.7561331
564.90 0.7558196
565.00 0.7555019
565.10 0.7551843
565.20 0.754867
565.30 0.7545499
565.40 0.7542328
565.50 0.753916
565.60 0.7535993
565.70 0.7532829
565.80 0.7529666
565.90 0.7526505
566.00 0.7523346
566.10 0.7520187
566.20 0.7517032
566.30 0.7513877
566.40 0.7510725
566.50 0.7507574
566.60 0.7504426
566.70 0.7501278
566.80 0.7498134
566.90 0.749499
567.00 0.7491848
567.10 0.7488708
567.20 0.7485569
567.30 0.7482433
567.40 0.7479298
567.50 0.7476165
567.60 0.7473034
567.70 0.7469899
567.80 0.7466746
567.90 0.7463593
568.00 0.7460443
568.10 0.7457295
568.20 0.7454149
568.30 0.7451003
568.40 0.7447861
568.50 0.7444719
568.60 0.7441579
568.70 0.7438442
568.80 0.7435305
568.90 0.7432171
569.00 0.7429038
569.10 0.7425907
569.20 0.7422779
569.30 0.7419651
569.40 0.7416525
569.50 0.7413402
569.60 0.7410279
569.70 0.7407158
569.80 0.740404
569.90 0.7400923
570.00 0.7397808
570.10 0.7394694
570.20 0.7391582
570.30 0.7388472
570.40 0.7385364
570.50 0.7382257
570.60 0.7379152
570.70 0.7376049
570.80 0.7372948
570.90 0.7369848
571.00 0.736675
571.10 0.7363654
571.20 0.7360559
571.30 0.7357466
571.40 0.7354375
571.50 0.7351285
571.60 0.7348197
571.70 0.7345111
571.80 0.7342027
571.90 0.7338945
572.00 0.7335864
572.10 0.7332785
572.20 0.7329708
572.30 0.7326632
572.40 0.7323557
572.50 0.7320485
572.60 0.7317414
572.70 0.7314345
572.80 0.7311278
572.90 0.7308212
573.00 0.7305149
573.10 0.7302086
573.20 0.7299026
573.30 0.7295967
573.40 0.7292903
573.50 0.7289831
573.60 0.728676
573.70 0.7283691
573.80 0.7280624
573.90 0.7277559
574.00 0.7274495
574.10 0.7271433
574.20 0.7268373
574.30 0.7265315
574.40 0.7262258
574.50 0.7259202
574.60 0.7256149
574.70 0.7253097
574.80 0.7250047
574.90 0.7246999
575.00 0.7243951
575.10 0.7240906
575.20 0.7237863
575.30 0.7234821
575.40 0.7231781
575.50 0.7228742
575.60 0.7225706
575.70 0.7222671
575.80 0.7219637
575.90 0.7216606
576.00 0.7213576
576.10 0.7210547
576.20 0.720752
576.30 0.7204496
576.40 0.7201472
576.50 0.719845
576.60 0.719543
576.70 0.7192412
576.80 0.7189395
576.90 0.718638
577.00 0.7183367
577.10 0.7180355
577.20 0.7177345
577.30 0.7174336
577.40 0.717133
577.50 0.7168324
577.60 0.7165352
577.70 0.7162429
577.80 0.7159509
577.90 0.7156591
578.00 0.7153674
578.10 0.7150759
578.20 0.7147846
578.30 0.7144934
578.40 0.7142024
578.50 0.7139115
578.60 0.7136207
578.70 0.7133301
578.80 0.7130397
578.90 0.7127495
579.00 0.7124594
579.10 0.7121687
579.20 0.7118711
579.30 0.7115735
579.40 0.711276
579.50 0.7109789
579.60 0.7106818
579.70 0.7103849
579.80 0.7100881
579.90 0.7097916
580.00 0.7094951
580.10 0.7091962
580.20 0.7088933
580.30 0.7085905
580.40 0.7082879
580.50 0.7079855
580.60 0.7076831
580.70 0.707381
580.80 0.7070791
580.90 0.7067773
581.00 0.7064757
581.10 0.7061742
581.20 0.7058729
581.30 0.7055717
581.40 0.7052708
581.50 0.70497
581.60 0.7046694
581.70 0.7043689
581.80 0.7040686
581.90 0.7037684
582.00 0.7034685
582.10 0.703174
582.20 0.7028881
582.30 0.7026025
582.40 0.7023169
582.50 0.7020317
582.60 0.7017464
582.70 0.7014614
582.80 0.7011765
582.90 0.7008918
583.00 0.7006072
583.10 0.7003228
583.20 0.7000386
583.30 0.6997544
583.40 0.6994705
583.50 0.6991867
583.60 0.698896
583.70 0.6985939
583.80 0.6982921
583.90 0.6979904
584.00 0.6976889
584.10 0.6973876
584.20 0.6970863
584.30 0.6967854
584.40 0.6964845
584.50 0.6961838
584.60 0.6958832
584.70 0.6955829
584.80 0.6952827
584.90 0.6949939
585.00 0.6947563
585.10 0.6945188
585.20 0.6942565
585.30 0.6939536
585.40 0.6936508
585.50 0.6933483
585.60 0.6930459
585.70 0.6927436
585.80 0.6924415
585.90 0.6921396
586.00 0.6918378
586.10 0.6915363
586.20 0.691239
586.30 0.6909486
586.40 0.6906585
586.50 0.6903683
586.60 0.6900785
586.70 0.6897888
586.80 0.6895044
586.90 0.6892286
587.00 0.688953
587.10 0.6886775
587.20 0.6883867
587.30 0.6880706
587.40 0.6877858
587.50 0.6875517
587.60 0.6873177
587.70 0.6869209
587.80 0.6866872
587.90 0.6864536
588.00 0.6861892
588.10 0.6858745
588.20 0.68556
588.30 0.6852457
588.40 0.6849417
588.50 0.6846549
588.60 0.6843681
588.70 0.6840815
588.80 0.6837951
588.90 0.6835087
589.00 0.6832247
589.10 0.6829441
589.20 0.6826637
589.30 0.6823834
589.40 0.6821032
589.50 0.6818232
589.60 0.6815434
589.70 0.6812637
589.80 0.6809842
589.90 0.6807048
590.00 0.680428
590.10 0.6801554
590.20 0.679883
590.30 0.6796106
590.40 0.6793385
590.50 0.6790664
590.60 0.6787945
590.70 0.6785227
590.80 0.6782399
590.90 0.6779521
591.00 0.6776646
591.10 0.6773771
591.20 0.6770899
591.30 0.6768029
591.40 0.6765159
591.50 0.6762291
591.60 0.6759441
591.70 0.6756621
591.80 0.6753802
591.90 0.6750985
592.00 0.6748169
592.10 0.6745355
592.20 0.6742542
592.30 0.6739731
592.40 0.6736921
592.50 0.6734113
592.60 0.6731306
592.70 0.6728501
592.80 0.6725697
592.90 0.6722895
593.00 0.6720095
593.10 0.6717285
593.20 0.6714461
593.30 0.6711638
593.40 0.6708816
593.50 0.6705997
593.60 0.6703179
593.70 0.6700362
593.80 0.6697547
593.90 0.6694734
594.00 0.6691921
594.10 0.6689111
594.20 0.6686301
594.30 0.6683493
594.40 0.6680687
594.50 0.6677882
594.60 0.667508
594.70 0.6672279
594.80 0.6669478
594.90 0.666668
595.00 0.6663883
595.10 0.6661107
595.20 0.6658365
595.30 0.6655624
595.40 0.6652885
595.50 0.6650148
595.60 0.6647411
595.70 0.6644676
595.80 0.6641943
595.90 0.6639211
596.00 0.6636481
596.10 0.6633752
596.20 0.6631025
596.30 0.6628299
596.40 0.6625574
596.50 0.6622851
596.60 0.6620129
596.70 0.6617402
596.80 0.6614672
596.90 0.6611942
597.00 0.6609215
597.10 0.6606489
597.20 0.6603764
597.30 0.6601042
597.40 0.6598319
597.50 0.65956
597.60 0.6592868
597.70 0.6590118
597.80 0.658737
597.90 0.6584624
598.00 0.6581878
598.10 0.6579134
598.20 0.6576392
598.30 0.6573651
598.40 0.6570912
598.50 0.6568174
598.60 0.6565437
598.70 0.6562702
598.80 0.6559969
598.90 0.6557236
599.00 0.6554506
599.10 0.6551777
599.20 0.6549048
599.30 0.6546323
599.40 0.654359
599.50 0.6540859
599.60 0.653813
599.70 0.6535402
599.80 0.6532675
599.90 0.6529951
600.00 0.6527227
600.10 0.6524505
600.20 0.6521784
600.30 0.6519065
600.40 0.6516347
600.50 0.6513631
600.60 0.6510915
600.70 0.6508202
600.80 0.650549
600.90 0.650278
601.00 0.650007
601.10 0.6497363
601.20 0.6494656
601.30 0.6491952
601.40 0.6489317
601.50 0.6486682
601.60 0.6484049
601.70 0.6481418
601.80 0.6478787
601.90 0.6476158
602.00 0.6473531
602.10 0.6470905
602.20 0.6468281
602.30 0.6465658
602.40 0.6463036
602.50 0.6460416
602.60 0.6457797
602.70 0.6454876
602.80 0.645194
602.90 0.6449219
603.00 0.64465
603.10 0.6443782
603.20 0.6441066
603.30 0.643835
603.40 0.6435637
603.50 0.6432925
603.60 0.6430215
603.70 0.6427505
603.80 0.6424798
603.90 0.6422091
604.00 0.6419387
604.10 0.6416683
604.20 0.6413982
604.30 0.6411281
604.40 0.6408581
604.50 0.6406
604.60 0.6403419
604.70 0.6400839
604.80 0.6398262
604.90 0.6395684
605.00 0.639311
605.10 0.6390535
605.20 0.6387963
605.30 0.6385392
605.40 0.6382822
605.50 0.6380202
605.60 0.6377584
605.70 0.6374967
605.80 0.637235
605.90 0.6369736
606.00 0.6367124
606.10 0.6364257
606.20 0.6361392
606.30 0.6358528
606.40 0.6355666
606.50 0.6353571
606.60 0.6351476
606.70 0.6347854
606.80 0.6345761
606.90 0.634367
607.00 0.6340053
607.10 0.6337964
607.20 0.6335876
607.30 0.6333028
607.40 0.633018
607.50 0.6327334
607.60 0.6324489
607.70 0.63219
607.80 0.6319311
607.90 0.6316725
608.00 0.631414
608.10 0.6311556
608.20 0.6308974
608.30 0.6306194
608.40 0.6303416
608.50 0.6300639
608.60 0.6297864
608.70 0.6295208
608.80 0.6292605
608.90 0.6290005
609.00 0.6287407
609.10 0.628481
609.20 0.6282213
609.30 0.6279678
609.40 0.6277143
609.50 0.627461
609.60 0.6272078
609.70 0.6269548
609.80 0.6267019
609.90 0.6264491
610.00 0.6261965
610.10 0.625944
610.20 0.6256916
610.30 0.6254394
610.40 0.6251872
610.50 0.6249352
610.60 0.6246835
610.70 0.6244317
610.80 0.6241801
610.90 0.6239155
611.00 0.623651
611.10 0.6233866
611.20 0.6231224
611.30 0.6228583
611.40 0.6225943
611.50 0.6223305
611.60 0.6220669
611.70 0.6218033
611.80 0.6215399
611.90 0.6212767
612.00 0.6210136
612.10 0.6207506
612.20 0.6204878
612.30 0.6202251
612.40 0.61997
612.50 0.619715
612.60 0.6194603
612.70 0.6192056
612.80 0.6189511
612.90 0.6186967
613.00 0.6184424
613.10 0.6181884
613.20 0.6179343
613.30 0.6176804
613.40 0.6174268
613.50 0.6171732
613.60 0.6169197
613.70 0.6166663
613.80 0.6164132
613.90 0.6161601
614.00 0.6159071
614.10 0.6156543
614.20 0.6154017
614.30 0.6151492
614.40 0.6149132
614.50 0.6146773
614.60 0.6144416
614.70 0.6142059
614.80 0.6139527
614.90 0.6136958
615.00 0.6134392
615.10 0.6131825
615.20 0.6129262
615.30 0.6126698
615.40 0.6124136
615.50 0.6121576
615.60 0.6119017
615.70 0.611646
615.80 0.6113903
615.90 0.6111349
616.00 0.6108794
616.10 0.6106243
616.20 0.6103691
616.30 0.6101141
616.40 0.6098594
616.50 0.6096046
616.60 0.60935
616.70 0.6090957
616.80 0.6088413
616.90 0.6085894
617.00 0.6083376
617.10 0.6080859
617.20 0.6078344
617.30 0.6075829
617.40 0.6073316
617.50 0.6070804
617.60 0.6068294
617.70 0.6065785
617.80 0.6063278
617.90 0.6060771
618.00 0.6058266
618.10 0.6055762
618.20 0.605326
618.30 0.6050759
618.40 0.6048259
618.50 0.604576
618.60 0.6043263
618.70 0.6040767
618.80 0.6038272
618.90 0.6035779
619.00 0.6033286
619.10 0.6030796
619.20 0.6028306
619.30 0.6025818
619.40 0.6023331
619.50 0.6020845
619.60 0.6018361
619.70 0.6015878
619.80 0.6013396
619.90 0.6010916
620.00 0.6008437
620.10 0.6005959
620.20 0.6003482
620.30 0.6001006
620.40 0.5998532
620.50 0.599606
620.60 0.5993588
620.70 0.5991118
620.80 0.598865
620.90 0.598618
621.00 0.5983712
621.10 0.5981245
621.20 0.597878
621.30 0.5976316
621.40 0.5973853
621.50 0.597139
621.60 0.5968929
621.70 0.596647
621.80 0.5964012
621.90 0.5961555
622.00 0.5959099
622.10 0.5956645
622.20 0.5954193
622.30 0.595174
622.40 0.594929
622.50 0.5946841
622.60 0.5944392
622.70 0.5941946
622.80 0.5939501
622.90 0.5937057
623.00 0.5934614
623.10 0.5932172
623.20 0.5929731
623.30 0.5927293
623.40 0.5924855
623.50 0.5922418
623.60 0.5919983
623.70 0.5917549
623.80 0.5915116
623.90 0.5912685
624.00 0.5910254
624.10 0.5907825
624.20 0.5905397
624.30 0.5902971
624.40 0.5900546
624.50 0.5898121
624.60 0.5895699
624.70 0.5893277
624.80 0.5890857
624.90 0.5888438
625.00 0.588602
625.10 0.5883603
625.20 0.5881188
625.30 0.5878774
625.40 0.5876362
625.50 0.587395
625.60 0.5871539
625.70 0.586913
625.80 0.5866722
625.90 0.5864316
626.00 0.586191
626.10 0.5859505
626.20 0.5857103
626.30 0.5854701
626.40 0.5852301
626.50 0.5849902
626.60 0.5847503
626.70 0.5845107
626.80 0.5842711
626.90 0.5840317
627.00 0.5837924
627.10 0.583554
627.20 0.5833177
627.30 0.5830816
627.40 0.5828455
627.50 0.5826096
627.60 0.5823738
627.70 0.5821383
627.80 0.5819027
627.90 0.5816673
628.00 0.581432
628.10 0.5811968
628.20 0.5809618
628.30 0.5807268
628.40 0.580492
628.50 0.5802573
628.60 0.5800227
628.70 0.5797883
628.80 0.5795539
628.90 0.5793197
629.00 0.5790856
629.10 0.5788517
629.20 0.5786178
629.30 0.5783841
629.40 0.5781505
629.50 0.5779169
629.60 0.5776835
629.70 0.5774503
629.80 0.5772171
629.90 0.5769841
630.00 0.5767512
630.10 0.5765184
630.20 0.5762858
630.30 0.5760491
630.40 0.5758121
630.50 0.5755753
630.60 0.5753386
630.70 0.575102
630.80 0.5748657
630.90 0.5746293
631.00 0.5743931
631.10 0.574157
631.20 0.5739211
631.30 0.5736852
631.40 0.5734495
631.50 0.5732139
631.60 0.5729784
631.70 0.572743
631.80 0.5725078
631.90 0.5722727
632.00 0.5720377
632.10 0.5718028
632.20 0.571568
632.30 0.5713334
632.40 0.5710989
632.50 0.5708645
632.60 0.5706302
632.70 0.5703961
632.80 0.570162
632.90 0.5699281
633.00 0.5696943
633.10 0.5694606
633.20 0.5692271
633.30 0.5689937
633.40 0.5687606
633.50 0.5685279
633.60 0.5682954
633.70 0.5680629
633.80 0.5678305
633.90 0.5675983
634.00 0.5673662
634.10 0.5671342
634.20 0.5669024
634.30 0.5666707
634.40 0.566439
634.50 0.5662075
634.60 0.5659761
634.70 0.5657448
634.80 0.5655136
634.90 0.5652826
635.00 0.5650517
635.10 0.5648209
635.20 0.5645901
635.30 0.5643596
635.40 0.5641291
635.50 0.5638988
635.60 0.5636685
635.70 0.5634385
635.80 0.5632085
635.90 0.5629786
636.00 0.5627488
636.10 0.5625192
636.20 0.5622897
636.30 0.5620603
636.40 0.561831
636.50 0.5616018
636.60 0.5613728
636.70 0.5611438
636.80 0.560915
636.90 0.5606864
637.00 0.5604578
637.10 0.5602293
637.20 0.5600009
637.30 0.5597727
637.40 0.5595447
637.50 0.5593166
637.60 0.5590888
637.70 0.558861
637.80 0.5586334
637.90 0.5584058
638.00 0.5581784
638.10 0.5579511
638.20 0.5577239
638.30 0.5574968
638.40 0.5572699
638.50 0.557043
638.60 0.5568163
638.70 0.5565896
638.80 0.5563632
638.90 0.5561368
639.00 0.5559105
639.10 0.5556844
639.20 0.5554583
639.30 0.5552324
639.40 0.5550065
639.50 0.5547809
639.60 0.5545553
639.70 0.5543289
639.80 0.5540998
639.90 0.5538708
640.00 0.5536418
640.10 0.5534131
640.20 0.5531844
640.30 0.5529559
640.40 0.5527275
640.50 0.5524991
640.60 0.5522709
640.70 0.5520428
640.80 0.5518148
640.90 0.5515869
641.00 0.5513592
641.10 0.5511315
641.20 0.5509041
641.30 0.5506766
641.40 0.5504494
641.50 0.5502221
641.60 0.5499951
641.70 0.5497681
641.80 0.5495414
641.90 0.5493146
642.00 0.5490881
642.10 0.5488615
642.20 0.5486352
642.30 0.5484089
642.40 0.5481829
642.50 0.5479568
642.60 0.5477308
642.70 0.5475051
642.80 0.5472794
642.90 0.5470548
643.00 0.5468337
643.10 0.5466125
643.20 0.5463915
643.30 0.5461706
643.40 0.5459499
643.50 0.5457292
643.60 0.5455086
643.70 0.5452882
643.80 0.5450679
643.90 0.5448476
644.00 0.5446275
644.10 0.5444075
644.20 0.5441876
644.30 0.5439679
644.40 0.5437482
644.50 0.5435286
644.60 0.5433092
644.70 0.5430899
644.80 0.5428706
644.90 0.5426515
645.00 0.5424325
645.10 0.5422136
645.20 0.5419949
645.30 0.5417762
645.40 0.5415575
645.50 0.5413391
645.60 0.5411207
645.70 0.5409025
645.80 0.5406844
645.90 0.5404664
646.00 0.5402485
646.10 0.5400308
646.20 0.5398135
646.30 0.5395965
646.40 0.5393795
646.50 0.5391627
646.60 0.5389459
646.70 0.5387292
646.80 0.5385127
646.90 0.5382962
647.00 0.5380799
647.10 0.5378636
647.20 0.5376476
647.30 0.5374316
647.40 0.5372157
647.50 0.5369998
647.60 0.5367842
647.70 0.5365686
647.80 0.5363531
647.90 0.5361378
648.00 0.5359226
648.10 0.5357074
648.20 0.5354923
648.30 0.5352775
648.40 0.5350626
648.50 0.5348479
648.60 0.5346333
648.70 0.5344187
648.80 0.5342044
648.90 0.5339901
649.00 0.5337759
649.10 0.5335619
649.20 0.5333478
649.30 0.533134
649.40 0.5329163
649.50 0.5326986
649.60 0.5324809
649.70 0.5322633
649.80 0.5320459
649.90 0.5318286
650.00 0.5316114
650.10 0.5313943
650.20 0.5311772
650.30 0.5309603
650.40 0.5307436
650.50 0.5305269
650.60 0.5303104
650.70 0.5300938
650.80 0.5298775
650.90 0.5296613
651.00 0.5294452
651.10 0.5292291
651.20 0.5290132
651.30 0.5287974
651.40 0.5285816
651.50 0.528366
651.60 0.5281506
651.70 0.5279352
651.80 0.5277199
651.90 0.5275047
652.00 0.5272897
652.10 0.5270747
652.20 0.5268599
652.30 0.5266452
652.40 0.5264305
652.50 0.526216
652.60 0.5260009
652.70 0.5257854
652.80 0.5255701
652.90 0.5253549
653.00 0.5251398
653.10 0.5249248
653.20 0.5247099
653.30 0.5244951
653.40 0.5242805
653.50 0.5240659
653.60 0.5238514
653.70 0.5236371
653.80 0.5234228
653.90 0.5232087
654.00 0.5229947
654.10 0.5227807
654.20 0.5225669
654.30 0.5223532
654.40 0.5221396
654.50 0.521926
654.60 0.5217127
654.70 0.5214994
654.80 0.5212862
654.90 0.5210732
655.00 0.5208602
655.10 0.5206473
655.20 0.5204345
655.30 0.5202219
655.40 0.5200093
655.50 0.5197969
655.60 0.5195845
655.70 0.5193724
655.80 0.5191682
655.90 0.518964
656.00 0.5187601
656.10 0.5185562
656.20 0.5183524
656.30 0.5181487
656.40 0.5179452
656.50 0.5177417
656.60 0.5175384
656.70 0.5173351
656.80 0.5171318
656.90 0.5169288
657.00 0.5167258
657.10 0.5165229
657.20 0.5163202
657.30 0.5161175
657.40 0.5159148
657.50 0.5157124
657.60 0.51551
657.70 0.5153078
657.80 0.515038
657.90 0.5148201
658.00 0.5146114
658.10 0.5144029
658.20 0.5141944
658.30 0.513986
658.40 0.5137778
658.50 0.5135696
658.60 0.5133616
658.70 0.5131536
658.80 0.5129458
658.90 0.512738
659.00 0.5125304
659.10 0.5123437
659.20 0.5121883
659.30 0.5119748
659.40 0.5117615
659.50 0.5115483
659.60 0.5113352
659.70 0.5111222
659.80 0.5109093
659.90 0.5106965
660.00 0.5104839
660.10 0.5102712
660.20 0.5100588
660.30 0.5098464
660.40 0.5096382
660.50 0.5094307
660.60 0.5092233
660.70 0.509016
660.80 0.5088088
660.90 0.5086033
661.00 0.5083979
661.10 0.5081926
661.20 0.5079874
661.30 0.5077823
661.40 0.5075773
661.50 0.5073724
661.60 0.5071676
661.70 0.5069629
661.80 0.5067583
661.90 0.5065553
662.00 0.5063525
662.10 0.5061497
662.20 0.5059469
662.30 0.5057443
662.40 0.5055842
662.50 0.5053675
662.60 0.5051509
662.70 0.5049343
662.80 0.5047179
662.90 0.5045657
663.00 0.5044135
663.10 0.5041334
663.20 0.5039813
663.30 0.5037015
663.40 0.5035497
663.50 0.503334
663.60 0.5031183
663.70 0.5029074
663.80 0.5026964
663.90 0.5025361
664.00 0.5023847
664.10 0.5021697
664.20 0.5019547
664.30 0.5017398
664.40 0.501525
664.50 0.5013104
664.60 0.5010958
664.70 0.5008982
664.80 0.5007006
664.90 0.5005032
665.00 0.5003058
665.10 0.5001086
665.20 0.4999114
665.30 0.4997143
665.40 0.4995174
665.50 0.4993019
665.60 0.4990832
665.70 0.4989088
665.80 0.4987091
665.90 0.4985095
666.00 0.4983099
666.10 0.4981106
666.20 0.4979112
666.30 0.497712
666.40 0.4975129
666.50 0.4973203
666.60 0.4971289
666.70 0.4969375
666.80 0.4967463
666.90 0.4965552
667.00 0.4963641
667.10 0.4961509
667.20 0.4959338
667.30 0.4957264
667.40 0.4955192
667.50 0.4953082
667.60 0.4950966
667.70 0.4949389
667.80 0.4946645
667.90 0.4945164
668.00 0.4943683
668.10 0.4941668
668.20 0.4939558
668.30 0.4937451
668.40 0.4935343
668.50 0.4933237
668.60 0.4931133
668.70 0.4929563
668.80 0.4927601
668.90 0.4925639
669.00 0.4923679
669.10 0.4921718
669.20 0.4919759
669.30 0.4917789
669.40 0.4915817
669.50 0.4913847
669.60 0.4911877
669.70 0.4909908
669.80 0.4907941
669.90 0.4905974
670.00 0.4904009
670.10 0.4902043
670.20 0.490008
670.30 0.4898104
670.40 0.4896126
670.50 0.489415
670.60 0.4892174
670.70 0.4890199
670.80 0.4888181
670.90 0.4886162
671.00 0.4884146
671.10 0.488213
671.20 0.4880116
671.30 0.4878101
671.40 0.4876089
671.50 0.4874077
671.60 0.4872067
671.70 0.4870056
671.80 0.4868047
671.90 0.4866084
672.00 0.486413
672.10 0.4862175
672.20 0.4860222
672.30 0.4858271
672.40 0.4856401
672.50 0.4854539
672.60 0.4852678
672.70 0.4850818
672.80 0.4848958
672.90 0.48471
673.00 0.4845242
673.10 0.4843385
673.20 0.4841529
673.30 0.4839011
673.40 0.4836991
673.50 0.4835058
673.60 0.4833126
673.70 0.4831195
673.80 0.4829267
673.90 0.4827338
674.00 0.482541
674.10 0.4823483
674.20 0.4821556
674.30 0.4819631
674.40 0.4817707
674.50 0.4815784
674.60 0.4813862
674.70 0.4811941
674.80 0.481002
674.90 0.4808101
675.00 0.4806182
675.10 0.4804264
675.20 0.4802348
675.30 0.4800432
675.40 0.4798517
675.50 0.4796603
675.60 0.479469
675.70 0.4792778
675.80 0.4790866
675.90 0.4788956
676.00 0.4787047
676.10 0.4785139
676.20 0.4783232
676.30 0.4781325
676.40 0.477942
676.50 0.4777515
676.60 0.4775611
676.70 0.4773707
676.80 0.4771805
676.90 0.4769904
677.00 0.4768004
677.10 0.4766105
677.20 0.4764206
677.30 0.4762309
677.40 0.4760413
677.50 0.4758517
677.60 0.4756623
677.70 0.4754729
677.80 0.4752836
677.90 0.4750932
678.00 0.4749027
678.10 0.4747123
678.20 0.474522
678.30 0.4743317
678.40 0.4741416
678.50 0.4739515
678.60 0.4737616
678.70 0.4735717
678.80 0.4733819
678.90 0.4731922
679.00 0.4730025
679.10 0.4728142
679.20 0.4726265
679.30 0.4724389
679.40 0.4722514
679.50 0.4720638
679.60 0.4718765
679.70 0.4716893
679.80 0.4715021
679.90 0.471315
680.00 0.4711279
680.10 0.470941
680.20 0.4707542
680.30 0.4705675
680.40 0.4703808
680.50 0.4701943
680.60 0.4700078
680.70 0.4698214
680.80 0.4696351
680.90 0.469449
681.00 0.4692629
681.10 0.4690768
681.20 0.4688909
681.30 0.4687051
681.40 0.4685192
681.50 0.4683336
681.60 0.4681481
681.70 0.4679625
681.80 0.4677771
681.90 0.4675918
682.00 0.4674066
682.10 0.4672215
682.20 0.4670364
682.30 0.4668514
682.40 0.4666666
682.50 0.4664818
682.60 0.4662971
682.70 0.4661125
682.80 0.465928
682.90 0.4657436
683.00 0.4655592
683.10 0.465375
683.20 0.4651908
683.30 0.4650067
683.40 0.4648227
683.50 0.4646388
683.60 0.464455
683.70 0.4642713
683.80 0.4640877
683.90 0.4639041
684.00 0.4637207
684.10 0.4635372
684.20 0.463354
684.30 0.4631707
684.40 0.4629877
684.50 0.4628046
684.60 0.4626216
684.70 0.4624388
684.80 0.462256
684.90 0.4620734
685.00 0.4618907
685.10 0.4617083
685.20 0.4615258
685.30 0.4613435
685.40 0.4611613
685.50 0.4609792
685.60 0.460797
685.70 0.460615
685.80 0.4604332
685.90 0.4602503
686.00 0.4600674
686.10 0.4598844
686.20 0.4597017
686.30 0.4595189
686.40 0.4593363
686.50 0.4591537
686.60 0.4589712
686.70 0.4587889
686.80 0.4586065
686.90 0.4584244
687.00 0.4582422
687.10 0.4580602
687.20 0.4578782
687.30 0.4576963
687.40 0.4575146
687.50 0.4573329
687.60 0.4571513
687.70 0.4569698
687.80 0.4567883
687.90 0.456607
688.00 0.4564257
688.10 0.4562445
688.20 0.4560635
688.30 0.4558825
688.40 0.4557016
688.50 0.4555208
688.60 0.45534
688.70 0.4551593
688.80 0.4549788
688.90 0.4547983
689.00 0.4546179
689.10 0.4544376
689.20 0.4542574
689.30 0.4540772
689.40 0.4538972
689.50 0.4537172
689.60 0.4535373
689.70 0.4533575
689.80 0.4531778
689.90 0.4529982
690.00 0.4528186
690.10 0.4526391
690.20 0.4524598
690.30 0.4522805
690.40 0.4521013
690.50 0.4519221
690.60 0.4517431
690.70 0.4515642
690.80 0.4513853
690.90 0.4512065
691.00 0.4510278
691.10 0.4508491
691.20 0.4506707
691.30 0.4504922
691.40 0.4503139
691.50 0.4501356
691.60 0.4499574
691.70 0.4497792
691.80 0.4496013
691.90 0.4494233
692.00 0.4492455
692.10 0.4490677
692.20 0.44889
692.30 0.4487124
692.40 0.4485348
692.50 0.4483574
692.60 0.4481801
692.70 0.4480027
692.80 0.4478245
692.90 0.4476464
693.00 0.4474683
693.10 0.4472904
693.20 0.4471126
693.30 0.4469348
693.40 0.4467572
693.50 0.4465796
693.60 0.4464021
693.70 0.4462247
693.80 0.4460473
693.90 0.4458701
694.00 0.4456929
694.10 0.4455158
694.20 0.4453388
694.30 0.4451619
694.40 0.444985
694.50 0.4448084
694.60 0.4446317
694.70 0.4444551
694.80 0.4442786
694.90 0.4441022
695.00 0.4439258
695.10 0.4437496
695.20 0.4435734
695.30 0.4433973
695.40 0.4432213
695.50 0.4430454
695.60 0.4428696
695.70 0.4426938
695.80 0.4425182
695.90 0.4423426
696.00 0.4421671
696.10 0.4419916
696.20 0.4418163
696.30 0.4416411
696.40 0.4414658
696.50 0.4412907
696.60 0.4411173
696.70 0.4409443
696.80 0.4407714
696.90 0.4405986
697.00 0.4404258
697.10 0.4402531
697.20 0.4400805
697.30 0.439908
697.40 0.4397356
697.50 0.4395632
697.60 0.439391
697.70 0.4392188
697.80 0.4390466
697.90 0.4388746
698.00 0.4387027
698.10 0.4385309
698.20 0.438359
698.30 0.4381873
698.40 0.4380158
698.50 0.4378442
698.60 0.4376727
698.70 0.4375014
698.80 0.4373301
698.90 0.4371588
699.00 0.4369877
699.10 0.4368061
699.20 0.4366223
699.30 0.4364385
699.40 0.4362548
699.50 0.4360712
699.60 0.4358877
699.70 0.4357215
699.80 0.4355565
699.90 0.4353914
700.00 0.4352263
700.10 0.4350614
700.20 0.4348966
700.30 0.4347318
700.40 0.4345671
700.50 0.4344025
700.60 0.4342379
700.70 0.4340735
700.80 0.4339091
700.90 0.4337448
701.00 0.4335805
701.10 0.4334059
701.20 0.4332289
701.30 0.4330519
701.40 0.432875
701.50 0.4326984
701.60 0.4325217
701.70 0.4323451
701.80 0.4321685
701.90 0.4319921
702.00 0.4318157
702.10 0.4316395
702.20 0.4314633
702.30 0.4312872
702.40 0.4311111
702.50 0.4309352
702.60 0.4307678
702.70 0.4306024
702.80 0.4304372
702.90 0.430272
703.00 0.4301069
703.10 0.4299419
703.20 0.4297769
703.30 0.4296121
703.40 0.4294472
703.50 0.4292825
703.60 0.4291179
703.70 0.4289533
703.80 0.4287888
703.90 0.4286244
704.00 0.4284601
704.10 0.4282958
704.20 0.4281293
704.30 0.4279624
704.40 0.4277955
704.50 0.4276287
704.60 0.427462
704.70 0.4272954
704.80 0.4271288
704.90 0.4269624
705.00 0.4267959
705.10 0.4266295
705.20 0.4264541
705.30 0.4262767
705.40 0.4260993
705.50 0.425922
705.60 0.4257448
705.70 0.4255676
705.80 0.4254134
705.90 0.4252647
706.00 0.425116
706.10 0.4249674
706.20 0.424796
706.30 0.4246193
706.40 0.4244855
706.50 0.4242554
706.60 0.4241354
706.70 0.4239026
706.80 0.4237371
706.90 0.4235609
707.00 0.4234076
707.10 0.4232597
707.20 0.4231118
707.30 0.4229641
707.40 0.4227936
707.50 0.4226179
707.60 0.4224423
707.70 0.4222667
707.80 0.4220913
707.90 0.4219159
708.00 0.4217496
708.10 0.4215856
708.20 0.4214218
708.30 0.4212579
708.40 0.4210941
708.50 0.4209304
708.60 0.4207667
708.70 0.4206031
708.80 0.4204398
708.90 0.4202763
709.00 0.4201153
709.10 0.4199548
709.20 0.4197945
709.30 0.4196342
709.40 0.4194739
709.50 0.4193137
709.60 0.4191536
709.70 0.4189936
709.80 0.4188337
709.90 0.4186738
710.00 0.418514
710.10 0.4183543
710.20 0.4181947
710.30 0.4180351
710.40 0.4178757
710.50 0.4177161
710.60 0.4175486
710.70 0.417379
710.80 0.4172097
710.90 0.4170404
711.00 0.4168711
711.10 0.4167019
711.20 0.4165328
711.30 0.4163638
711.40 0.4161948
711.50 0.416026
711.60 0.4158572
711.70 0.4156885
711.80 0.4155199
711.90 0.4153514
712.00 0.4151828
712.10 0.4150237
712.20 0.4148668
712.30 0.4147099
712.40 0.4145531
712.50 0.4143964
712.60 0.4142398
712.70 0.4140832
712.80 0.4139267
712.90 0.4137703
713.00 0.4136139
713.10 0.4134576
713.20 0.4133014
713.30 0.4131452
713.40 0.4129892
713.50 0.4128331
713.60 0.4126772
713.70 0.4125139
713.80 0.4123356
713.90 0.4121574
714.00 0.4119792
714.10 0.4118162
714.20 0.4116567
714.30 0.4114974
714.40 0.411338
714.50 0.4111788
714.60 0.4110196
714.70 0.4108606
714.80 0.4107016
714.90 0.4105427
715.00 0.4103838
715.10 0.410225
715.20 0.4100663
715.30 0.4099076
715.40 0.4097491
715.50 0.4095906
715.60 0.4094321
715.70 0.4092738
715.80 0.4091155
715.90 0.4089573
716.00 0.4087992
716.10 0.4086411
716.20 0.4084831
716.30 0.4083252
716.40 0.4081674
716.50 0.4080095
716.60 0.4078489
716.70 0.4076876
716.80 0.4075264
716.90 0.4073653
717.00 0.4072043
717.10 0.4070433
717.20 0.4068824
717.30 0.4067216
717.40 0.4065609
717.50 0.4064002
717.60 0.4062396
717.70 0.4060791
717.80 0.4059187
717.90 0.4057583
718.00 0.405598
718.10 0.4054378
718.20 0.40528
718.30 0.4051235
718.40 0.4049671
718.50 0.4048108
718.60 0.4046545
718.70 0.4044984
718.80 0.4043423
718.90 0.4041862
719.00 0.4040303
719.10 0.4038744
719.20 0.4037185
719.30 0.4035628
719.40 0.4034071
719.50 0.4032515
719.60 0.403096
719.70 0.4029405
719.80 0.4027851
719.90 0.4026297
720.00 0.4024745
720.10 0.4023193
720.20 0.4021642
720.30 0.4020092
720.40 0.4018541
720.50 0.4016993
720.60 0.4015444
720.70 0.4013762
720.80 0.4012007
720.90 0.4010471
721.00 0.4008945
721.10 0.4007419
721.20 0.4005895
721.30 0.400437
721.40 0.4002846
721.50 0.4001324
721.60 0.3999802
721.70 0.3998281
721.80 0.399676
721.90 0.3995239
722.00 0.3993721
722.10 0.3992202
722.20 0.3990683
722.30 0.3989167
722.40 0.398765
722.50 0.3986134
722.60 0.3984619
722.70 0.3983092
722.80 0.3981559
722.90 0.3980027
723.00 0.3978495
723.10 0.3976964
723.20 0.3975434
723.30 0.3973905
723.40 0.3972376
723.50 0.3970848
723.60 0.396932
723.70 0.3967793
723.80 0.3966268
723.90 0.3964742
724.00 0.3963218
724.10 0.3961694
724.20 0.3960145
724.30 0.3958582
724.40 0.395702
724.50 0.3955459
724.60 0.3953898
724.70 0.3952338
724.80 0.3950779
724.90 0.394922
725.00 0.3947663
725.10 0.3946105
725.20 0.3944549
725.30 0.3942994
725.40 0.3941438
725.50 0.3939885
725.60 0.3938331
725.70 0.3936778
725.80 0.3935252
725.90 0.3933741
726.00 0.393223
726.10 0.393072
726.20 0.3929211
726.30 0.3927702
726.40 0.3926194
726.50 0.3924686
726.60 0.3923181
726.70 0.3921674
726.80 0.3920215
726.90 0.3918782
727.00 0.3917349
727.10 0.3915916
727.20 0.3914485
727.30 0.3913054
727.40 0.3911508
727.50 0.3909901
727.60 0.3908295
727.70 0.390669
727.80 0.3905085
727.90 0.3903481
728.00 0.3902223
728.10 0.3900089
728.20 0.3899019
728.30 0.3897816
728.40 0.3895817
728.50 0.3894748
728.60 0.3893334
728.70 0.3891735
728.80 0.3890138
728.90 0.3888541
729.00 0.3886945
729.10 0.388535
729.20 0.3883755
729.30 0.3882161
729.40 0.3880567
729.50 0.3878975
729.60 0.3877452
729.70 0.3875967
729.80 0.3874482
729.90 0.3872997
730.00 0.3871514
730.10 0.3870031
730.20 0.3868549
730.30 0.3867068
730.40 0.3865587
730.50 0.3864107
730.60 0.3862645
730.70 0.3861193
730.80 0.385974
730.90 0.3858289
731.00 0.3856839
731.10 0.3855389
731.20 0.385394
731.30 0.3852491
731.40 0.3851044
731.50 0.3849596
731.60 0.384815
731.70 0.3846703
731.80 0.3845258
731.90 0.3843814
732.00 0.384237
732.10 0.3840927
732.20 0.3839467
732.30 0.3837999
732.40 0.3836531
732.50 0.3835064
732.60 0.3833598
732.70 0.3832132
732.80 0.3830667
732.90 0.3829203
733.00 0.3827739
733.10 0.3826276
733.20 0.3824814
733.30 0.3823352
733.40 0.3821891
733.50 0.382043
733.60 0.3818971
733.70 0.3817496
733.80 0.3816014
733.90 0.3814533
734.00 0.3813052
734.10 0.3811572
734.20 0.3810093
734.30 0.3808614
734.40 0.3807136
734.50 0.3805659
734.60 0.3804182
734.70 0.3802706
734.80 0.3801232
734.90 0.3799757
735.00 0.3798283
735.10 0.379681
735.20 0.3795337
735.30 0.3793852
735.40 0.3792213
735.50 0.3790575
735.60 0.3788938
735.70 0.3787426
735.80 0.3785981
735.90 0.3784536
736.00 0.3783092
736.10 0.3781649
736.20 0.3780207
736.30 0.3778765
736.40 0.3777324
736.50 0.3775882
736.60 0.3774443
736.70 0.3773003
736.80 0.3771565
736.90 0.3770127
737.00 0.376869
737.10 0.3767252
737.20 0.3765816
737.30 0.3764381
737.40 0.3762946
737.50 0.3761511
737.60 0.3760078
737.70 0.3758645
737.80 0.3757213
737.90 0.3755781
738.00 0.3754349
738.10 0.3752919
738.20 0.375149
738.30 0.3750062
738.40 0.3748634
738.50 0.3747207
738.60 0.3745781
738.70 0.3744355
738.80 0.374293
738.90 0.3741506
739.00 0.3740082
739.10 0.3738659
739.20 0.3737236
739.30 0.3735815
739.40 0.3734393
739.50 0.3732973
739.60 0.3731553
739.70 0.3730134
739.80 0.3728714
739.90 0.3727297
740.00 0.372588
740.10 0.3724462
740.20 0.3723046
740.30 0.372163
740.40 0.3720215
740.50 0.3718801
740.60 0.3717387
740.70 0.3715974
740.80 0.3714562
740.90 0.371315
741.00 0.3711739
741.10 0.3710329
741.20 0.3708918
741.30 0.3707509
741.40 0.37061
741.50 0.3704692
741.60 0.3703285
741.70 0.3701878
741.80 0.3700472
741.90 0.3699066
742.00 0.3697662
742.10 0.3696258
742.20 0.3694853
742.30 0.3693451
742.40 0.3692048
742.50 0.3690646
742.60 0.3689245
742.70 0.3687797
742.80 0.3686311
742.90 0.3684827
743.00 0.3683343
743.10 0.3681859
743.20 0.3680376
743.30 0.3678894
743.40 0.3677412
743.50 0.3675931
743.60 0.3674451
743.70 0.3672986
743.80 0.3671586
743.90 0.3670184
744.00 0.3668785
744.10 0.3667385
744.20 0.3665986
744.30 0.3664589
744.40 0.366319
744.50 0.3661794
744.60 0.3660397
744.70 0.3659002
744.80 0.3657606
744.90 0.3656212
745.00 0.3654818
745.10 0.3653425
745.20 0.3652032
745.30 0.365064
745.40 0.3649248
745.50 0.3647858
745.60 0.3646467
745.70 0.3645078
745.80 0.3643689
745.90 0.3642301
746.00 0.3640913
746.10 0.3639526
746.20 0.3638139
746.30 0.3636753
746.40 0.3635368
746.50 0.3633983
746.60 0.36326
746.70 0.3631216
746.80 0.3629833
746.90 0.3628451
747.00 0.3627069
747.10 0.3625688
747.20 0.3624307
747.30 0.3622928
747.40 0.3621549
747.50 0.3620171
747.60 0.3618792
747.70 0.3617415
747.80 0.3616038
747.90 0.3614662
748.00 0.3613286
748.10 0.3611912
748.20 0.3610537
748.30 0.3609164
748.40 0.360779
748.50 0.3606417
748.60 0.3605046
748.70 0.3603675
748.80 0.3602304
748.90 0.3600934
749.00 0.3599564
749.10 0.3598195
749.20 0.3596827
749.30 0.3595459
749.40 0.3594092
749.50 0.3592726
749.60 0.359136
749.70 0.3589994
749.80 0.358863
749.90 0.3587266
750.00 0.3585902
750.10 0.3584542
750.20 0.3583186
750.30 0.3581831
750.40 0.3580476
750.50 0.3579123
750.60 0.357777
750.70 0.3576417
750.80 0.3575065
750.90 0.3573714
751.00 0.3572364
751.10 0.3571013
751.20 0.3569663
751.30 0.3568314
751.40 0.3566966
751.50 0.3565619
751.60 0.3564271
751.70 0.3562924
751.80 0.3561578
751.90 0.3560232
752.00 0.3558888
752.10 0.3557544
752.20 0.35562
752.30 0.3554857
752.40 0.3553514
752.50 0.3552172
752.60 0.3550831
752.70 0.3549491
752.80 0.354815
752.90 0.3546811
753.00 0.3545472
753.10 0.3544133
753.20 0.3542795
753.30 0.3541458
753.40 0.3540122
753.50 0.3538786
753.60 0.353745
753.70 0.3536115
753.80 0.3534781
753.90 0.3533426
754.00 0.3532067
754.10 0.3530708
754.20 0.352935
754.30 0.3527992
754.40 0.3526635
754.50 0.3525279
754.60 0.3523922
754.70 0.3522567
754.80 0.3521213
754.90 0.3519858
755.00 0.3518505
755.10 0.3517151
755.20 0.3515799
755.30 0.3514448
755.40 0.3513096
755.50 0.3511746
755.60 0.3510395
755.70 0.3509046
755.80 0.3507698
755.90 0.3506349
756.00 0.3505001
756.10 0.3503654
756.20 0.3502307
756.30 0.3500962
756.40 0.3499617
756.50 0.3498272
756.60 0.3496928
756.70 0.3495584
756.80 0.3494241
756.90 0.3492899
757.00 0.3491558
757.10 0.3490216
757.20 0.3488875
757.30 0.3487535
757.40 0.3486196
757.50 0.3484857
757.60 0.3483528
757.70 0.3482219
757.80 0.3480912
757.90 0.3479606
758.00 0.34783
758.10 0.3476995
758.20 0.347569
758.30 0.3474386
758.40 0.3473083
758.50 0.347178
758.60 0.3470477
758.70 0.3469175
758.80 0.3467873
758.90 0.3466573
759.00 0.3465273
759.10 0.3463973
759.20 0.3462674
759.30 0.3461376
759.40 0.3460077
759.50 0.345878
759.60 0.3457483
759.70 0.3456187
759.80 0.3454891
759.90 0.3453596
760.00 0.3452302
760.10 0.3451007
760.20 0.3449714
760.30 0.3448421
760.40 0.3447129
760.50 0.3445837
760.60 0.3444545
760.70 0.3443255
760.80 0.3441965
760.90 0.3440676
761.00 0.3439387
761.10 0.3438098
761.20 0.343681
761.30 0.3435523
761.40 0.3434226
761.50 0.3432914
761.60 0.3431603
761.70 0.3430292
761.80 0.3428982
761.90 0.3427673
762.00 0.3426363
762.10 0.3425055
762.20 0.3423747
762.30 0.342244
762.40 0.3421133
762.50 0.3419827
762.60 0.3418522
762.70 0.3417217
762.80 0.3415913
762.90 0.3414609
763.00 0.3413306
763.10 0.3412002
763.20 0.34107
763.30 0.3409399
763.40 0.3408098
763.50 0.3406797
763.60 0.3405498
763.70 0.3404198
763.80 0.3402899
763.90 0.3401601
764.00 0.3400303
764.10 0.3399006
764.20 0.339771
764.30 0.3396414
764.40 0.3395119
764.50 0.3393823
764.60 0.3392529
764.70 0.3391236
764.80 0.3389943
764.90 0.338865
765.00 0.3387358
765.10 0.3386066
765.20 0.3384784
765.30 0.3383511
765.40 0.3382237
765.50 0.3380964
765.60 0.3379692
765.70 0.337842
765.80 0.337715
765.90 0.3375879
766.00 0.3374609
766.10 0.337334
766.20 0.3372071
766.30 0.3370802
766.40 0.3369535
766.50 0.3368268
766.60 0.3367001
766.70 0.3365735
766.80 0.336447
766.90 0.3363204
767.00 0.336194
767.10 0.3360676
767.20 0.3359413
767.30 0.335815
767.40 0.3356887
767.50 0.3355626
767.60 0.3354365
767.70 0.3353104
767.80 0.3351844
767.90 0.3350584
768.00 0.3349326
768.10 0.3348067
768.20 0.3346809
768.30 0.3345552
768.40 0.3344295
768.50 0.3343039
768.60 0.3341782
768.70 0.3340528
768.80 0.3339272
768.90 0.3338019
769.00 0.3336765
769.10 0.3335512
769.20 0.333426
769.30 0.3333007
769.40 0.3331756
769.50 0.3330505
769.60 0.3329255
769.70 0.3328005
769.80 0.3326756
769.90 0.3325506
770.00 0.3324259
770.10 0.332301
770.20 0.3321764
770.30 0.3320517
770.40 0.3319271
770.50 0.3318025
770.60 0.331678
770.70 0.3315535
770.80 0.3314292
770.90 0.3313048
771.00 0.3311806
771.10 0.3310563
771.20 0.3309322
771.30 0.330808
771.40 0.330684
771.50 0.3305599
771.60 0.330436
771.70 0.330312
771.80 0.3301882
771.90 0.3300644
772.00 0.3299406
772.10 0.3298169
772.20 0.3296932
772.30 0.3295697
772.40 0.3294461
772.50 0.3293227
772.60 0.3291992
772.70 0.3290758
772.80 0.3289525
772.90 0.3288295
773.00 0.3287067
773.10 0.3285839
773.20 0.3284611
773.30 0.3283385
773.40 0.3282158
773.50 0.3280932
773.60 0.3279707
773.70 0.3278482
773.80 0.3277257
773.90 0.3276034
774.00 0.327481
774.10 0.3273588
774.20 0.3272366
774.30 0.3271144
774.40 0.3269923
774.50 0.3268702
774.60 0.3267482
774.70 0.3266262
774.80 0.3265043
774.90 0.3263824
775.00 0.3262606
775.10 0.3261389
775.20 0.3260172
775.30 0.3258955
775.40 0.325774
775.50 0.3256524
775.60 0.3255309
775.70 0.3254094
775.80 0.3252881
775.90 0.3251667
776.00 0.3250454
776.10 0.3249242
776.20 0.324803
776.30 0.3246819
776.40 0.3245608
776.50 0.3244398
776.60 0.3243188
776.70 0.3241979
776.80 0.324077
776.90 0.3239562
777.00 0.3238354
777.10 0.3237147
777.20 0.323594
777.30 0.3234734
777.40 0.3233528
777.50 0.3232323
777.60 0.3231118
777.70 0.3229914
777.80 0.3228711
777.90 0.3227508
778.00 0.3226305
778.10 0.3225103
778.20 0.3223901
778.30 0.3222701
778.40 0.32215
778.50 0.32203
778.60 0.32191
778.70 0.3217901
778.80 0.3216703
778.90 0.3215505
779.00 0.3214307
779.10 0.321311
779.20 0.3211913
779.30 0.3210717
779.40 0.3209522
779.50 0.3208328
779.60 0.3207133
779.70 0.3205939
779.80 0.3204745
779.90 0.3203552
780.00 0.320236
780.10 0.3201168
780.20 0.3199977
780.30 0.3198786
780.40 0.3197596
780.50 0.3196406
780.60 0.3195203
780.70 0.3193996
780.80 0.3192791
780.90 0.3191585
781.00 0.3190379
781.10 0.3189174
781.20 0.318797
781.30 0.3186767
781.40 0.3185563
781.50 0.318436
781.60 0.3183158
781.70 0.3181957
781.80 0.3180756
781.90 0.3179555
782.00 0.3178354
782.10 0.3177154
782.20 0.3175955
782.30 0.3174757
782.40 0.3173559
782.50 0.3172361
782.60 0.3171164
782.70 0.3169967
782.80 0.3168771
782.90 0.3167576
783.00 0.3166381
783.10 0.3165186
783.20 0.3163992
783.30 0.3162798
783.40 0.3161605
783.50 0.3160412
783.60 0.3159221
783.70 0.315803
783.80 0.3156838
783.90 0.3155648
784.00 0.3154458
784.10 0.3153268
784.20 0.3152079
784.30 0.315089
784.40 0.3149703
784.50 0.3148515
784.60 0.3147334
784.70 0.3146168
784.80 0.3145002
784.90 0.3143837
785.00 0.3142671
785.10 0.3141506
785.20 0.3140343
785.30 0.3139179
785.40 0.3138016
785.50 0.3136854
785.60 0.3135692
785.70 0.313453
785.80 0.3133369
785.90 0.3132209
786.00 0.3131049
786.10 0.312989
786.20 0.3128731
786.30 0.3127571
786.40 0.3126413
786.50 0.3125256
786.60 0.3124099
786.70 0.3122942
786.80 0.3121786
786.90 0.312063
787.00 0.3119475
787.10 0.3118321
787.20 0.3117166
787.30 0.3116012
787.40 0.3114859
787.50 0.3113706
787.60 0.3112554
787.70 0.3111403
787.80 0.3110252
787.90 0.31091
788.00 0.310795
788.10 0.31068
788.20 0.3105651
788.30 0.3104502
788.40 0.3103349
788.50 0.3102195
788.60 0.310104
788.70 0.3099887
788.80 0.3098734
788.90 0.3097582
789.00 0.309643
789.10 0.3095278
789.20 0.3094127
789.30 0.3092976
789.40 0.3091826
789.50 0.3090676
789.60 0.3089527
789.70 0.3088379
789.80 0.3087231
789.90 0.3086082
790.00 0.3084935
790.10 0.3083789
790.20 0.3082643
790.30 0.3081497
790.40 0.3080352
790.50 0.3079206
790.60 0.3078062
790.70 0.3076918
790.80 0.3075775
790.90 0.3074633
791.00 0.3073489
791.10 0.3072348
791.20 0.3071206
791.30 0.3070066
791.40 0.3068924
791.50 0.3067785
791.60 0.3066645
791.70 0.3065506
791.80 0.3064368
791.90 0.3063229
792.00 0.3062092
792.10 0.3060955
792.20 0.3059818
792.30 0.3058687
792.40 0.3057575
792.50 0.3056461
792.60 0.305535
792.70 0.3054238
792.80 0.3053127
792.90 0.3052016
793.00 0.3050905
793.10 0.3049796
793.20 0.3048687
793.30 0.3047577
793.40 0.3046469
793.50 0.3045361
793.60 0.3044254
793.70 0.3043146
793.80 0.304204
793.90 0.3040933
794.00 0.3039828
794.10 0.3038722
794.20 0.3037618
794.30 0.3036514
794.40 0.303541
794.50 0.3034307
794.60 0.3033204
794.70 0.3032102
794.80 0.3030999
794.90 0.3029898
795.00 0.3028796
795.10 0.3027696
795.20 0.3026596
795.30 0.3025496
795.40 0.3024397
795.50 0.3023298
795.60 0.3022199
795.70 0.3021102
795.80 0.3020004
795.90 0.3018908
796.00 0.3017811
796.10 0.3016715
796.20 0.3015619
796.30 0.3014509
796.40 0.3013394
796.50 0.3012282
796.60 0.3011168
796.70 0.3010057
796.80 0.3008945
796.90 0.3007833
797.00 0.3006723
797.10 0.3005612
797.20 0.3004503
797.30 0.3003393
797.40 0.3002284
797.50 0.3001176
797.60 0.3000068
797.70 0.299896
797.80 0.2997853
797.90 0.2996747
798.00 0.299564
798.10 0.2994535
798.20 0.2993429
798.30 0.2992324
798.40 0.2991219
798.50 0.2990116
798.60 0.2989013
798.70 0.298791
798.80 0.2986808
798.90 0.2985705
799.00 0.2984604
799.10 0.2983502
799.20 0.2982402
799.30 0.2981301
799.40 0.2980202
799.50 0.2979102
799.60 0.2978004
799.70 0.2976905
799.80 0.2975808
799.90 0.297471
800.00 0.2973613
800.10 0.2972516
800.20 0.297142
800.30 0.2970324
800.40 0.2969229
800.50 0.2968134
800.60 0.296704
800.70 0.2965946
800.80 0.2964852
800.90 0.296376
801.00 0.2962667
801.10 0.2961576
801.20 0.2960484
801.30 0.2959393
801.40 0.2958302
801.50 0.2957211
801.60 0.2956122
801.70 0.2955032
801.80 0.2953944
801.90 0.2952855
802.00 0.2951768
802.10 0.295068
802.20 0.2949592
802.30 0.2948506
802.40 0.294742
802.50 0.2946335
802.60 0.2945249
802.70 0.2944164
802.80 0.294308
802.90 0.2941996
803.00 0.2940913
803.10 0.2939829
803.20 0.2938747
803.30 0.2937665
803.40 0.2936583
803.50 0.2935502
803.60 0.2934421
803.70 0.293334
803.80 0.2932261
803.90 0.2931181
804.00 0.2930102
804.10 0.2929024
804.20 0.2927946
804.30 0.2926872
804.40 0.2925799
804.50 0.2924725
804.60 0.2923652
804.70 0.292258
804.80 0.2921508
804.90 0.2920436
805.00 0.2919366
805.10 0.2918295
805.20 0.2917224
805.30 0.2916154
805.40 0.2915086
805.50 0.2914017
805.60 0.2912948
805.70 0.2911881
805.80 0.2910813
805.90 0.2909745
806.00 0.2908679
806.10 0.2907613
806.20 0.2906547
806.30 0.2905481
806.40 0.2904417
806.50 0.2903352
806.60 0.2902288
806.70 0.2901224
806.80 0.2900162
806.90 0.2899099
807.00 0.2898036
807.10 0.2896974
807.20 0.2895914
807.30 0.2894852
807.40 0.2893792
807.50 0.2892731
807.60 0.2891671
807.70 0.2890613
807.80 0.2889554
807.90 0.2888495
808.00 0.2887437
808.10 0.2886381
808.20 0.2885323
808.30 0.2884266
808.40 0.288321
808.50 0.2882154
808.60 0.28811
808.70 0.2880045
808.80 0.287899
808.90 0.2877936
809.00 0.2876882
809.10 0.287583
809.20 0.2874777
809.30 0.2873724
809.40 0.2872672
809.50 0.2871621
809.60 0.287057
809.70 0.286952
809.80 0.286847
809.90 0.286742
810.00 0.286637
810.10 0.2865321
810.20 0.2864273
810.30 0.2863226
810.40 0.2862178
810.50 0.2861131
810.60 0.2860084
810.70 0.2859037
810.80 0.2857992
810.90 0.2856946
811.00 0.2855901
811.10 0.2854857
811.20 0.2853813
811.30 0.2852769
811.40 0.2851726
811.50 0.2850683
811.60 0.284964
811.70 0.2848598
811.80 0.2847557
811.90 0.2846515
812.00 0.2845476
812.10 0.2844435
812.20 0.2843395
812.30 0.2842355
812.40 0.2841315
812.50 0.2840276
812.60 0.2839237
812.70 0.2838198
812.80 0.283716
812.90 0.2836122
813.00 0.2835085
813.10 0.2834049
813.20 0.2833013
813.30 0.2831977
813.40 0.2830941
813.50 0.2829906
813.60 0.2828871
813.70 0.2827837
813.80 0.2826803
813.90 0.2825769
814.00 0.2824736
814.10 0.2823704
814.20 0.2822672
814.30 0.282164
814.40 0.2820608
814.50 0.2819577
814.60 0.2818547
814.70 0.2817517
814.80 0.2816487
814.90 0.2815458
815.00 0.2814429
815.10 0.2813401
815.20 0.2812373
815.30 0.2811345
815.40 0.2810318
815.50 0.2809291
815.60 0.2808265
815.70 0.2807239
815.80 0.2806214
815.90 0.2805189
816.00 0.2804164
816.10 0.280314
816.20 0.2802116
816.30 0.2801093
816.40 0.280007
816.50 0.2799048
816.60 0.2798026
816.70 0.2797004
816.80 0.2795983
816.90 0.2794962
817.00 0.2793941
817.10 0.2792921
817.20 0.2791902
817.30 0.2790883
817.40 0.2789864
817.50 0.2788846
817.60 0.2787828
817.70 0.278681
817.80 0.2785793
817.90 0.2784777
818.00 0.2783761
818.10 0.2782744
818.20 0.2781728
818.30 0.2780713
818.40 0.2779699
818.50 0.2778685
818.60 0.2777671
818.70 0.2776658
818.80 0.2775645
818.90 0.2774632
819.00 0.277362
819.10 0.2772609
819.20 0.2771596
819.30 0.2770609
819.40 0.2769638
819.50 0.2768666
819.60 0.2767695
819.70 0.2766725
819.80 0.2765754
819.90 0.2764785
820.00 0.2763816
820.10 0.2762497
820.20 0.2761363
820.30 0.276069
820.40 0.275982
820.50 0.2758807
820.60 0.2757795
820.70 0.2756783
820.80 0.275577
820.90 0.2754759
821.00 0.2753749
821.10 0.2752738
821.20 0.2751728
821.30 0.2750719
821.40 0.274971
821.50 0.2748701
821.60 0.2747693
821.70 0.2746684
821.80 0.2745677
821.90 0.274467
822.00 0.2743664
822.10 0.2742657
822.20 0.2741652
822.30 0.2740646
822.40 0.2739641
822.50 0.2738636
822.60 0.2737632
822.70 0.2736628
822.80 0.2735625
822.90 0.2734622
823.00 0.273362
823.10 0.2732617
823.20 0.2731615
823.30 0.2730614
823.40 0.2729613
823.50 0.2728613
823.60 0.2727612
823.70 0.2726612
823.80 0.2725613
823.90 0.2724614
824.00 0.2723616
824.10 0.2722618
824.20 0.272162
824.30 0.2720622
824.40 0.2719626
824.50 0.2718629
824.60 0.2717633
824.70 0.2716637
824.80 0.2715642
824.90 0.2714647
825.00 0.2713653
825.10 0.2712658
825.20 0.2711665
825.30 0.2710671
825.40 0.2709679
825.50 0.2708687
825.60 0.2707694
825.70 0.2706702
825.80 0.2705711
825.90 0.2704721
826.00 0.2703729
826.10 0.2702739
826.20 0.270175
826.30 0.2700769
826.40 0.2699793
826.50 0.2698819
826.60 0.2697845
826.70 0.269687
826.80 0.2695897
826.90 0.2694923
827.00 0.2693951
827.10 0.2692979
827.20 0.2692006
827.30 0.2691035
827.40 0.2690064
827.50 0.2689092
827.60 0.2688122
827.70 0.2687151
827.80 0.2686182
827.90 0.2685213
828.00 0.2684244
828.10 0.2683276
828.20 0.2682308
828.30 0.2681339
828.40 0.2680372
828.50 0.2679405
828.60 0.267844
828.70 0.2677477
828.80 0.2676515
828.90 0.2675553
829.00 0.2674591
829.10 0.267363
829.20 0.2672669
829.30 0.2671708
829.40 0.2670748
829.50 0.2669788
829.60 0.2668828
829.70 0.266787
829.80 0.2666912
829.90 0.2665953
830.00 0.2664996
830.10 0.2664037
830.20 0.2663081
830.30 0.2662124
830.40 0.2661168
830.50 0.2660211
830.60 0.2659256
830.70 0.26583
830.80 0.2657346
830.90 0.2656391
831.00 0.2655438
831.10 0.2654484
831.20 0.2653531
831.30 0.2652577
831.40 0.2651625
831.50 0.2650673
831.60 0.2649721
831.70 0.264877
831.80 0.2647819
831.90 0.2646868
832.00 0.2645918
832.10 0.2644968
832.20 0.2644019
832.30 0.2643069
832.40 0.2642121
832.50 0.2641173
832.60 0.2640225
832.70 0.2639277
832.80 0.2638329
832.90 0.2637383
833.00 0.2636436
833.10 0.2635491
833.20 0.2634545
833.30 0.26336
833.40 0.2632655
833.50 0.2631711
833.60 0.2630766
833.70 0.2629823
833.80 0.2628879
833.90 0.2627935
834.00 0.2626993
834.10 0.2626051
834.20 0.2625109
834.30 0.2624167
834.40 0.2623226
834.50 0.2622286
834.60 0.2621345
834.70 0.2620405
834.80 0.2619465
834.90 0.2618527
835.00 0.2617587
835.10 0.2616648
835.20 0.2615711
835.30 0.2614773
835.40 0.2613836
835.50 0.2612898
835.60 0.2611961
835.70 0.2611026
835.80 0.2610089
835.90 0.2609153
836.00 0.2608219
836.10 0.2607284
836.20 0.260635
836.30 0.2605416
836.40 0.2604481
836.50 0.2603549
836.60 0.2602616
836.70 0.2601683
836.80 0.2600751
836.90 0.2599821
837.00 0.2598892
837.10 0.2597965
837.20 0.2597037
837.30 0.2596109
837.40 0.2595183
837.50 0.2594256
837.60 0.259333
837.70 0.2592405
837.80 0.2591479
837.90 0.2590554
838.00 0.258963
838.10 0.2588705
838.20 0.2587781
838.30 0.2586858
838.40 0.2585934
838.50 0.2585011
838.60 0.2584089
838.70 0.2583167
838.80 0.2582245
838.90 0.2581323
839.00 0.2580403
839.10 0.2579482
839.20 0.2578562
839.30 0.2577641
839.40 0.2576723
839.50 0.2575803
839.60 0.2574884
839.70 0.2573965
839.80 0.2573048
839.90 0.257213
840.00 0.2571212
840.10 0.2570296
840.20 0.2569379
840.30 0.2568463
840.40 0.2567547
840.50 0.2566632
840.60 0.2565716
840.70 0.2564801
840.80 0.2563887
840.90 0.2562972
841.00 0.2562059
841.10 0.2561146
841.20 0.2560233
841.30 0.255932
841.40 0.2558408
841.50 0.2557496
841.60 0.2556585
841.70 0.2555673
841.80 0.2554762
841.90 0.2553853
842.00 0.2552942
842.10 0.2552032
842.20 0.2551123
842.30 0.2550214
842.40 0.2549306
842.50 0.2548398
842.60 0.2547489
842.70 0.2546582
842.80 0.2545674
842.90 0.2544768
843.00 0.2543862
843.10 0.2542955
843.20 0.2542049
843.30 0.2541144
843.40 0.254024
843.50 0.2539335
843.60 0.253843
843.70 0.2537526
843.80 0.2536623
843.90 0.2535719
844.00 0.2534817
844.10 0.2533914
844.20 0.2533012
844.30 0.253211
844.40 0.2531209
844.50 0.2530307
844.60 0.2529406
844.70 0.2528507
844.80 0.2527607
844.90 0.2526707
845.00 0.2525807
845.10 0.2524908
845.20 0.252401
845.30 0.2523105
845.40 0.2522201
845.50 0.2521297
845.60 0.2520393
845.70 0.251949
845.80 0.2518587
845.90 0.2517684
846.00 0.2516783
846.10 0.2515881
846.20 0.251498
846.30 0.2514078
846.40 0.2513177
846.50 0.2512277
846.60 0.2511377
846.70 0.2510478
846.80 0.2509578
846.90 0.2508679
847.00 0.2507781
847.10 0.2506882
847.20 0.2505984
847.30 0.2505087
847.40 0.2504189
847.50 0.2503293
847.60 0.2502397
847.70 0.25015
847.80 0.2500605
847.90 0.2499709
848.00 0.2498814
848.10 0.2497919
848.20 0.2497025
848.30 0.2496131
848.40 0.2495237
848.50 0.2494344
848.60 0.2493451
848.70 0.2492559
848.80 0.2491666
848.90 0.2490774
849.00 0.2489883
849.10 0.2488991
849.20 0.24881
849.30 0.248721
849.40 0.248632
849.50 0.248543
849.60 0.248454
849.70 0.2483652
849.80 0.2482763
849.90 0.2481875
850.00 0.2480987
850.10 0.2480099
850.20 0.2479212
850.30 0.2478325
850.40 0.2477438
850.50 0.2476552
850.60 0.2475666
850.70 0.247478
850.80 0.2473895
850.90 0.247301
851.00 0.2472125
851.10 0.2471241
851.20 0.2470357
851.30 0.2469473
851.40 0.246859
851.50 0.2467707
851.60 0.2466825
851.70 0.2465943
851.80 0.2465061
851.90 0.2464179
852.00 0.2463298
852.10 0.2462417
852.20 0.2461537
852.30 0.2460657
852.40 0.2459777
852.50 0.2458898
852.60 0.2458019
852.70 0.245714
852.80 0.2456262
852.90 0.2455384
853.00 0.2454506
853.10 0.2453629
853.20 0.2452752
853.30 0.2451875
853.40 0.2450999
853.50 0.2450123
853.60 0.2449248
853.70 0.2448378
853.80 0.2447516
853.90 0.2446653
854.00 0.2445791
854.10 0.2444929
854.20 0.2444068
854.30 0.2443206
854.40 0.2442345
854.50 0.2441485
854.60 0.2440625
854.70 0.2439765
854.80 0.2438905
854.90 0.2438046
855.00 0.2437187
855.10 0.2436328
855.20 0.243547
855.30 0.2434613
855.40 0.2433755
855.50 0.2432898
855.60 0.2432041
855.70 0.2431184
855.80 0.2430328
855.90 0.2429472
856.00 0.2428617
856.10 0.2427762
856.20 0.2426907
856.30 0.2426052
856.40 0.2425198
856.50 0.2424344
856.60 0.2423491
856.70 0.2422638
856.80 0.2421784
856.90 0.2420932
857.00 0.242008
857.10 0.2419228
857.20 0.2418377
857.30 0.2417526
857.40 0.2416674
857.50 0.2415824
857.60 0.2414974
857.70 0.2414124
857.80 0.2413275
857.90 0.2412425
858.00 0.2411576
858.10 0.2410728
858.20 0.240988
858.30 0.2409031
858.40 0.2408184
858.50 0.2407337
858.60 0.240649
858.70 0.2405644
858.80 0.2404797
858.90 0.2403951
859.00 0.2403106
859.10 0.2402261
859.20 0.2401415
859.30 0.2400571
859.40 0.2399727
859.50 0.2398883
859.60 0.2398039
859.70 0.2397196
859.80 0.2396353
859.90 0.239551
860.00 0.2394667
860.10 0.2393826
860.20 0.2392984
860.30 0.2392143
860.40 0.2391302
860.50 0.2390461
860.60 0.2389621
860.70 0.2388781
860.80 0.2387941
860.90 0.2387102
861.00 0.2386263
861.10 0.2385424
861.20 0.2384585
861.30 0.2383748
861.40 0.238291
861.50 0.2382072
861.60 0.2381235
861.70 0.2380399
861.80 0.2379562
861.90 0.2378726
862.00 0.237789
862.10 0.2377055
862.20 0.2376219
862.30 0.2375378
862.40 0.2374538
862.50 0.2373697
862.60 0.2372857
862.70 0.2372018
862.80 0.2371179
862.90 0.237034
863.00 0.2369502
863.10 0.2368664
863.20 0.2367826
863.30 0.2366988
863.40 0.2366151
863.50 0.2365314
863.60 0.2364477
863.70 0.2363641
863.80 0.2362806
863.90 0.2361969
864.00 0.2361134
864.10 0.23603
864.20 0.2359466
864.30 0.2358631
864.40 0.2357797
864.50 0.2356964
864.60 0.235613
864.70 0.2355297
864.80 0.2354465
864.90 0.2353632
865.00 0.23528
865.10 0.2351968
865.20 0.2351136
865.30 0.2350306
865.40 0.2349475
865.50 0.2348644
865.60 0.2347814
865.70 0.2346985
865.80 0.2346155
865.90 0.2345326
866.00 0.2344498
866.10 0.2343668
866.20 0.2342841
866.30 0.2342013
866.40 0.2341185
866.50 0.2340358
866.60 0.2339532
866.70 0.2338704
866.80 0.2337878
866.90 0.2337052
867.00 0.2336227
867.10 0.2335402
867.20 0.2334576
867.30 0.2333752
867.40 0.2332928
867.50 0.2332103
867.60 0.233128
867.70 0.2330456
867.80 0.2329633
867.90 0.2328811
868.00 0.2327988
868.10 0.2327166
868.20 0.2326344
868.30 0.2325522
868.40 0.2324702
868.50 0.232388
868.60 0.232306
868.70 0.2322239
868.80 0.232142
868.90 0.2320601
869.00 0.2319781
869.10 0.2318962
869.20 0.2318143
869.30 0.2317325
869.40 0.2316507
869.50 0.2315689
869.60 0.2314872
869.70 0.2314055
869.80 0.2313238
869.90 0.2312421
870.00 0.2311606
870.10 0.231079
870.20 0.2309974
870.30 0.2309159
870.40 0.2308344
870.50 0.230753
870.60 0.2306715
870.70 0.2305902
870.80 0.2305087
870.90 0.2304285
871.00 0.2303483
871.10 0.2302682
871.20 0.230188
871.30 0.230108
871.40 0.2300279
871.50 0.229948
871.60 0.2298679
871.70 0.229788
871.80 0.2297081
871.90 0.2296282
872.00 0.2295483
872.10 0.2294684
872.20 0.2293887
872.30 0.2293089
872.40 0.2292292
872.50 0.2291495
872.60 0.2290698
872.70 0.2289901
872.80 0.2289105
872.90 0.228831
873.00 0.2287514
873.10 0.2286719
873.20 0.2285924
873.30 0.2285129
873.40 0.2284335
873.50 0.228354
873.60 0.2282747
873.70 0.2281953
873.80 0.2281161
873.90 0.2280368
874.00 0.2279575
874.10 0.2278783
874.20 0.2277991
874.30 0.22772
874.40 0.2276408
874.50 0.2275617
874.60 0.2274826
874.70 0.2274036
874.80 0.2273246
874.90 0.2272456
875.00 0.2271666
875.10 0.2270878
875.20 0.2270088
875.30 0.22693
875.40 0.2268512
875.50 0.2267723
875.60 0.2266936
875.70 0.2266148
875.80 0.2265361
875.90 0.2264575
876.00 0.2263788
876.10 0.2263002
876.20 0.2262216
876.30 0.226143
876.40 0.2260646
876.50 0.225986
876.60 0.2259075
876.70 0.2258292
876.80 0.2257507
876.90 0.2256723
877.00 0.225594
877.10 0.2255157
877.20 0.2254373
877.30 0.2253591
877.40 0.2252809
877.50 0.2252026
877.60 0.2251245
877.70 0.2250464
877.80 0.2249682
877.90 0.2248902
878.00 0.2248121
878.10 0.2247341
878.20 0.2246561
878.30 0.2245782
878.40 0.2245002
878.50 0.2244224
878.60 0.2243445
878.70 0.2242666
878.80 0.2241888
878.90 0.224111
879.00 0.2240332
879.10 0.2239555
879.20 0.2238779
879.30 0.2238002
879.40 0.2237225
879.50 0.223645
879.60 0.2235662
879.70 0.2234872
879.80 0.2234084
879.90 0.2233295
880.00 0.2232507
880.10 0.2231718
880.20 0.223093
880.30 0.2230143
880.40 0.2229356
880.50 0.2228568
880.60 0.2227782
880.70 0.2226996
880.80 0.2226209
880.90 0.2225424
881.00 0.2224638
881.10 0.2223854
881.20 0.2223069
881.30 0.2222284
881.40 0.22215
881.50 0.2220716
881.60 0.2219932
881.70 0.2219149
881.80 0.2218366
881.90 0.2217583
882.00 0.2216801
882.10 0.2216019
882.20 0.2215236
882.30 0.2214456
882.40 0.2213674
882.50 0.2212893
882.60 0.2212113
882.70 0.2211332
882.80 0.2210552
882.90 0.2209773
883.00 0.2208993
883.10 0.2208213
883.20 0.2207435
883.30 0.2206656
883.40 0.2205878
883.50 0.2205099
883.60 0.2204322
883.70 0.2203545
883.80 0.2202767
883.90 0.2201991
884.00 0.2201228
884.10 0.2200468
884.20 0.2199708
884.30 0.2198949
884.40 0.219819
884.50 0.2197431
884.60 0.2196673
884.70 0.2195914
884.80 0.2195156
884.90 0.2194398
885.00 0.2193642
885.10 0.2192885
885.20 0.2192128
885.30 0.2191371
885.40 0.2190615
885.50 0.2189859
885.60 0.2189104
885.70 0.2188349
885.80 0.2187593
885.90 0.2186838
886.00 0.2186084
886.10 0.2185329
886.20 0.2184575
886.30 0.2183823
886.40 0.2183069
886.50 0.2182316
886.60 0.2181563
886.70 0.218081
886.80 0.2180058
886.90 0.2179306
887.00 0.2178555
887.10 0.2177804
887.20 0.2177053
887.30 0.2176302
887.40 0.2175551
887.50 0.2174801
887.60 0.2174051
887.70 0.2173301
887.80 0.2172551
887.90 0.2171803
888.00 0.2171054
888.10 0.2170306
888.20 0.2169557
888.30 0.2168809
888.40 0.2168057
888.50 0.2167304
888.60 0.2166551
888.70 0.21658
888.80 0.2165048
888.90 0.2164296
889.00 0.2163544
889.10 0.2162793
889.20 0.2162042
889.30 0.2161291
889.40 0.2160541
889.50 0.2159791
889.60 0.2159042
889.70 0.2158293
889.80 0.2157543
889.90 0.2156794
890.00 0.2156046
890.10 0.2155297
890.20 0.2154549
890.30 0.2153801
890.40 0.2153054
890.50 0.2152308
890.60 0.2151561
890.70 0.2150814
890.80 0.2150067
890.90 0.2149321
891.00 0.2148575
891.10 0.214783
891.20 0.2147085
891.30 0.214634
891.40 0.2145595
891.50 0.214485
891.60 0.2144106
891.70 0.2143363
891.80 0.214262
891.90 0.2141876
892.00 0.2141133
892.10 0.2140391
892.20 0.2139648
892.30 0.2138906
892.40 0.2138164
892.50 0.2137423
892.60 0.2136681
892.70 0.213594
892.80 0.2135199
892.90 0.2134459
893.00 0.2133719
893.10 0.2132979
893.20 0.2132239
893.30 0.21315
893.40 0.2130761
893.50 0.2130023
893.60 0.2129284
893.70 0.2128546
893.80 0.2127808
893.90 0.212707
894.00 0.2126333
894.10 0.2125596
894.20 0.2124859
894.30 0.2124122
894.40 0.2123386
894.50 0.212265
894.60 0.2121914
894.70 0.2121178
894.80 0.2120443
894.90 0.2119708
895.00 0.2118974
895.10 0.2118239
895.20 0.2117505
895.30 0.2116771
895.40 0.2116038
895.50 0.2115305
895.60 0.2114572
895.70 0.2113839
895.80 0.2113106
895.90 0.2112374
896.00 0.2111642
896.10 0.2110911
896.20 0.2110179
896.30 0.2109448
896.40 0.2108718
896.50 0.2107987
896.60 0.2107257
896.70 0.2106527
896.80 0.2105797
896.90 0.2105068
897.00 0.2104339
897.10 0.210361
897.20 0.2102882
897.30 0.2102164
897.40 0.2101445
897.50 0.2100728
897.60 0.2100011
897.70 0.2099294
897.80 0.2098577
897.90 0.2097861
898.00 0.2097145
898.10 0.2096429
898.20 0.2095714
898.30 0.2094998
898.40 0.2094283
898.50 0.2093568
898.60 0.2092854
898.70 0.209214
898.80 0.2091426
898.90 0.2090712
899.00 0.2089999
899.10 0.2089285
899.20 0.2088572
899.30 0.208786
899.40 0.2087147
899.50 0.2086436
899.60 0.2085724
899.70 0.2085012
899.80 0.20843
899.90 0.2083589
900.00 0.2082879
900.10 0.2082168
900.20 0.2081458
900.30 0.2080748
900.40 0.2080038
900.50 0.2079328
900.60 0.2078619
900.70 0.2077911
900.80 0.2077202
900.90 0.2076494
901.00 0.2075785
901.10 0.2075077
901.20 0.207437
901.30 0.2073663
901.40 0.2072956
901.50 0.2072249
901.60 0.2071542
901.70 0.2070835
901.80 0.207013
901.90 0.2069424
902.00 0.2068719
902.10 0.2068013
902.20 0.2067308
902.30 0.2066603
902.40 0.2065899
902.50 0.2065195
902.60 0.2064491
902.70 0.2063787
902.80 0.2063083
902.90 0.206238
903.00 0.2061678
903.10 0.2060975
903.20 0.2060272
903.30 0.205957
903.40 0.2058869
903.50 0.2058167
903.60 0.2057465
903.70 0.2056764
903.80 0.2056064
903.90 0.2055363
904.00 0.2054663
904.10 0.2053962
904.20 0.2053263
904.30 0.2052563
904.40 0.2051864
904.50 0.2051165
904.60 0.2050466
904.70 0.2049768
904.80 0.204907
904.90 0.2048371
905.00 0.2047674
905.10 0.2046976
905.20 0.2046279
905.30 0.2045582
905.40 0.2044885
905.50 0.2044189
905.60 0.2043493
905.70 0.2042797
905.80 0.2042101
905.90 0.2041406
906.00 0.2040711
906.10 0.2040016
906.20 0.2039322
906.30 0.203863
906.40 0.2037939
906.50 0.2037247
906.60 0.2036556
906.70 0.2035865
906.80 0.2035174
906.90 0.2034484
907.00 0.2033794
907.10 0.2033104
907.20 0.2032414
907.30 0.2031725
907.40 0.2031036
907.50 0.2030346
907.60 0.2029658
907.70 0.202897
907.80 0.2028281
907.90 0.2027594
908.00 0.2026906
908.10 0.2026219
908.20 0.2025531
908.30 0.2024845
908.40 0.2024159
908.50 0.2023472
908.60 0.2022786
908.70 0.20221
908.80 0.2021414
908.90 0.2020729
909.00 0.2020044
909.10 0.2019359
909.20 0.2018675
909.30 0.2017991
909.40 0.2017306
909.50 0.2016622
909.60 0.2015939
909.70 0.2015255
909.80 0.2014572
909.90 0.201389
910.00 0.2013207
910.10 0.2012525
910.20 0.2011843
910.30 0.2011161
910.40 0.2010479
910.50 0.2009798
910.60 0.2009117
910.70 0.2008436
910.80 0.2007741
910.90 0.2007045
911.00 0.200635
911.10 0.2005656
911.20 0.2004961
911.30 0.2004266
911.40 0.2003573
911.50 0.2002879
911.60 0.2002185
911.70 0.2001492
911.80 0.2000799
911.90 0.2000107
912.00 0.1999414
912.10 0.1998722
912.20 0.199803
912.30 0.1997339
912.40 0.1996647
912.50 0.1995956
912.60 0.1995265
912.70 0.1994574
912.80 0.1993884
912.90 0.1993194
913.00 0.1992504
913.10 0.1991814
913.20 0.1991125
913.30 0.1990436
913.40 0.1989746
913.50 0.1989058
913.60 0.198837
913.70 0.1987681
913.80 0.1986994
913.90 0.1986306
914.00 0.1985618
914.10 0.1984931
914.20 0.1984245
914.30 0.1983559
914.40 0.1982872
914.50 0.1982186
914.60 0.19815
914.70 0.1980814
914.80 0.1980129
914.90 0.1979444
915.00 0.1978759
915.10 0.1978075
915.20 0.1977391
915.30 0.1976718
915.40 0.1976052
915.50 0.1975385
915.60 0.1974719
915.70 0.1974052
915.80 0.1973387
915.90 0.1972721
916.00 0.1972056
916.10 0.1971392
916.20 0.1970727
916.30 0.1970063
916.40 0.1969398
916.50 0.1968734
916.60 0.196807
916.70 0.1967407
916.80 0.1966743
916.90 0.1966081
917.00 0.1965417
917.10 0.1964755
917.20 0.1964093
917.30 0.1963431
917.40 0.1962769
917.50 0.1962108
917.60 0.1961446
917.70 0.1960785
917.80 0.1960124
917.90 0.1959464
918.00 0.1958803
918.10 0.1958143
918.20 0.1957483
918.30 0.1956824
918.40 0.1956164
918.50 0.1955505
918.60 0.1954846
918.70 0.1954188
918.80 0.1953529
918.90 0.1952871
919.00 0.1952212
919.10 0.1951555
919.20 0.1950897
919.30 0.1950241
919.40 0.1949583
919.50 0.1948927
919.60 0.194827
919.70 0.1947614
919.80 0.1946958
919.90 0.1946302
920.00 0.1945646
920.10 0.1944992
920.20 0.1944336
920.30 0.1943682
920.40 0.1943027
920.50 0.1942372
920.60 0.1941718
920.70 0.1941064
920.80 0.1940411
920.90 0.1939757
921.00 0.1939104
921.10 0.1938451
921.20 0.1937799
921.30 0.1937146
921.40 0.1936494
921.50 0.1935842
921.60 0.1935189
921.70 0.1934538
921.80 0.1933887
921.90 0.1933236
922.00 0.1932585
922.10 0.1931935
922.20 0.1931284
922.30 0.1930635
922.40 0.1929984
922.50 0.1929334
922.60 0.1928686
922.70 0.1928036
922.80 0.1927388
922.90 0.1926739
923.00 0.1926091
923.10 0.1925442
923.20 0.1924794
923.30 0.1924147
923.40 0.1923499
923.50 0.1922852
923.60 0.1922205
923.70 0.1921557
923.80 0.1920911
923.90 0.1920265
924.00 0.1919619
924.10 0.1918973
924.20 0.1918327
924.30 0.1917682
924.40 0.1917034
924.50 0.1916378
924.60 0.1915721
924.70 0.1915065
924.80 0.1914408
924.90 0.1913753
925.00 0.1913097
925.10 0.1912442
925.20 0.1911786
925.30 0.1911132
925.40 0.1910477
925.50 0.1909822
925.60 0.1909168
925.70 0.1908514
925.80 0.190786
925.90 0.1907206
926.00 0.1906554
926.10 0.19059
926.20 0.1905248
926.30 0.1904595
926.40 0.1903943
926.50 0.1903291
926.60 0.1902638
926.70 0.1901987
926.80 0.1901335
926.90 0.1900685
927.00 0.1900033
927.10 0.1899383
927.20 0.1898732
927.30 0.1898083
927.40 0.1897432
927.50 0.1896782
927.60 0.1896133
927.70 0.1895484
927.80 0.1894835
927.90 0.1894186
928.00 0.1893538
928.10 0.1892889
928.20 0.1892241
928.30 0.1891593
928.40 0.1890945
928.50 0.1890299
928.60 0.1889651
928.70 0.1889004
928.80 0.1888358
928.90 0.1887711
929.00 0.1887065
929.10 0.1886432
929.20 0.18858
929.30 0.188517
929.40 0.1884538
929.50 0.1883907
929.60 0.1883277
929.70 0.1882646
929.80 0.1882016
929.90 0.1881385
930.00 0.1880756
930.10 0.1880126
930.20 0.1879497
930.30 0.1878868
930.40 0.1878239
930.50 0.187761
930.60 0.1876981
930.70 0.1876354
930.80 0.1875725
930.90 0.1875097
931.00 0.1874471
931.10 0.1873843
931.20 0.1873216
931.30 0.1872588
931.40 0.1871963
931.50 0.1871336
931.60 0.1870709
931.70 0.1870084
931.80 0.1869458
931.90 0.1868832
932.00 0.1868207
932.10 0.1867582
932.20 0.1866957
932.30 0.1866333
932.40 0.1865708
932.50 0.1865084
932.60 0.186446
932.70 0.1863836
932.80 0.1863213
932.90 0.186259
933.00 0.1861967
933.10 0.1861344
933.20 0.1860721
933.30 0.1860099
933.40 0.1859477
933.50 0.1858855
933.60 0.1858233
933.70 0.1857614
933.80 0.1856994
933.90 0.1856375
934.00 0.1855757
934.10 0.1855138
934.20 0.1854521
934.30 0.1853902
934.40 0.1853285
934.50 0.1852667
934.60 0.185205
934.70 0.1851433
934.80 0.1850816
934.90 0.1850199
935.00 0.1849583
935.10 0.1848967
935.20 0.1848351
935.30 0.1847735
935.40 0.184712
935.50 0.1846504
935.60 0.184589
935.70 0.1845275
935.80 0.184466
935.90 0.1844045
936.00 0.1843431
936.10 0.1842818
936.20 0.1842204
936.30 0.184159
936.40 0.1840977
936.50 0.1840364
936.60 0.183975
936.70 0.1839139
936.80 0.1838526
936.90 0.1837914
937.00 0.1837302
937.10 0.183669
937.20 0.1836078
937.30 0.1835467
937.40 0.1834856
937.50 0.1834245
937.60 0.1833634
937.70 0.1833024
937.80 0.1832413
937.90 0.1831804
938.00 0.1831194
938.10 0.1830584
938.20 0.1829975
938.30 0.1829366
938.40 0.1828757
938.50 0.1828149
938.60 0.182754
938.70 0.1826932
938.80 0.1826324
938.90 0.1825716
939.00 0.1825108
939.10 0.18245
939.20 0.1823894
939.30 0.1823287
939.40 0.182268
939.50 0.1822073
939.60 0.1821467
939.70 0.1820861
939.80 0.1820255
939.90 0.181965
940.00 0.1819044
940.10 0.1818439
940.20 0.1817834
940.30 0.1817229
940.40 0.1816624
940.50 0.181602
940.60 0.1815415
940.70 0.1814812
940.80 0.1814209
940.90 0.1813605
941.00 0.1813002
941.10 0.1812398
941.20 0.1811795
941.30 0.1811193
941.40 0.181059
941.50 0.1809988
941.60 0.1809387
941.70 0.1808785
941.80 0.1808183
941.90 0.1807582
942.00 0.1806981
942.10 0.180638
942.20 0.1805779
942.30 0.1805178
942.40 0.1804578
942.50 0.1803978
942.60 0.1803379
942.70 0.1802779
942.80 0.180218
942.90 0.180158
943.00 0.1800979
943.10 0.1800376
943.20 0.1799773
943.30 0.179917
943.40 0.1798567
943.50 0.1797964
943.60 0.1797363
943.70 0.1796761
943.80 0.1796159
943.90 0.1795557
944.00 0.1794956
944.10 0.1794355
944.20 0.1793754
944.30 0.1793153
944.40 0.1792552
944.50 0.1791952
944.60 0.1791352
944.70 0.1790752
944.80 0.1790153
944.90 0.1789553
945.00 0.1788954
945.10 0.1788355
945.20 0.1787756
945.30 0.1787157
945.40 0.1786559
945.50 0.178596
945.60 0.1785362
945.70 0.1784765
945.80 0.1784168
945.90 0.178357
946.00 0.1782973
946.10 0.1782376
946.20 0.178178
946.30 0.1781183
946.40 0.1780587
946.50 0.1779991
946.60 0.1779395
946.70 0.1778799
946.80 0.1778204
946.90 0.1777608
947.00 0.1777013
947.10 0.1776418
947.20 0.1775824
947.30 0.177523
947.40 0.1774636
947.50 0.1774042
947.60 0.1773448
947.70 0.1772855
947.80 0.1772261
947.90 0.1771668
948.00 0.1771075
948.10 0.1770483
948.20 0.176989
948.30 0.1769298
948.40 0.1768706
948.50 0.1768114
948.60 0.1767522
948.70 0.1766931
948.80 0.176634
948.90 0.1765749
949.00 0.1765158
949.10 0.1764567
949.20 0.1763977
949.30 0.1763387
949.40 0.1762797
949.50 0.1762207
949.60 0.1761617
949.70 0.1761028
949.80 0.1760439
949.90 0.175985
950.00 0.1759261
950.10 0.1758673
950.20 0.1758085
950.30 0.1757496
950.40 0.1756909
950.50 0.1756321
950.60 0.1755734
950.70 0.1755146
950.80 0.1754559
950.90 0.1753973
951.00 0.1753386
951.10 0.17528
951.20 0.1752213
951.30 0.1751627
951.40 0.1751042
951.50 0.1750456
951.60 0.1749871
951.70 0.1749286
951.80 0.1748701
951.90 0.1748116
952.00 0.1747531
952.10 0.1746947
952.20 0.1746363
952.30 0.1745779
952.40 0.1745196
952.50 0.1744621
952.60 0.1744047
952.70 0.1743472
952.80 0.1742898
952.90 0.1742324
953.00 0.1741751
953.10 0.1741177
953.20 0.1740604
953.30 0.1740031
953.40 0.1739458
953.50 0.1738884
953.60 0.1738311
953.70 0.1737739
953.80 0.1737167
953.90 0.1736595
954.00 0.1736023
954.10 0.1735452
954.20 0.1734881
954.30 0.173431
954.40 0.1733739
954.50 0.1733167
954.60 0.1732596
954.70 0.1732026
954.80 0.1731456
954.90 0.1730886
955.00 0.1730317
955.10 0.1729747
955.20 0.1729178
955.30 0.1728609
955.40 0.1728039
955.50 0.172747
955.60 0.1726902
955.70 0.1726333
955.80 0.1725765
955.90 0.1725198
956.00 0.172463
956.10 0.1724062
956.20 0.1723494
956.30 0.1722927
956.40 0.172236
956.50 0.1721794
956.60 0.1721227
956.70 0.1720661
956.80 0.1720095
956.90 0.1719528
957.00 0.1718962
957.10 0.1718397
957.20 0.1717832
957.30 0.1717267
957.40 0.1716702
957.50 0.1716137
957.60 0.1715572
957.70 0.1715007
957.80 0.1714443
957.90 0.1713879
958.00 0.1713316
958.10 0.1712752
958.20 0.1712189
958.30 0.1711625
958.40 0.1711062
958.50 0.17105
958.60 0.1709937
958.70 0.1709375
958.80 0.1708813
958.90 0.170825
959.00 0.1707688
959.10 0.1707127
959.20 0.1706565
959.30 0.1706004
959.40 0.1705444
959.50 0.1704882
959.60 0.1704321
959.70 0.1703761
959.80 0.1703201
959.90 0.1702641
960.00 0.170208
960.10 0.1701521
960.20 0.1700962
960.30 0.1700403
960.40 0.1699844
960.50 0.1699285
960.60 0.1698726
960.70 0.1698167
960.80 0.1697609
960.90 0.1697051
961.00 0.1696494
961.10 0.1695935
961.20 0.1695378
961.30 0.1694821
961.40 0.1694264
961.50 0.1693707
961.60 0.1693149
961.70 0.1692593
961.80 0.1692037
961.90 0.1691481
962.00 0.1690927
962.10 0.1690372
962.20 0.1689819
962.30 0.1689266
962.40 0.1688713
962.50 0.1688159
962.60 0.1687607
962.70 0.1687054
962.80 0.1686502
962.90 0.1685949
963.00 0.1685397
963.10 0.1684846
963.20 0.1684295
963.30 0.1683743
963.40 0.1683191
963.50 0.1682641
963.60 0.168209
963.70 0.168154
963.80 0.1680988
963.90 0.1680438
964.00 0.1679888
964.10 0.1679339
964.20 0.1678788
964.30 0.1678239
964.40 0.167769
964.50 0.1677141
964.60 0.1676592
964.70 0.1676043
964.80 0.1675495
964.90 0.1674947
965.00 0.1674398
965.10 0.167385
965.20 0.1673303
965.30 0.1672754
965.40 0.1672207
965.50 0.167166
965.60 0.1671113
965.70 0.1670566
965.80 0.167002
965.90 0.1669473
966.00 0.1668927
966.10 0.1668381
966.20 0.1667835
966.30 0.166729
966.40 0.1666743
966.50 0.1666198
966.60 0.1665654
966.70 0.1665109
966.80 0.1664563
966.90 0.1664019
967.00 0.1663475
967.10 0.166293
967.20 0.1662387
967.30 0.1661843
967.40 0.16613
967.50 0.1660756
967.60 0.1660213
967.70 0.165967
967.80 0.1659126
967.90 0.1658584
968.00 0.1658042
968.10 0.16575
968.20 0.1656957
968.30 0.1656416
968.40 0.1655874
968.50 0.1655332
968.60 0.1654791
968.70 0.165425
968.80 0.1653708
968.90 0.1653168
969.00 0.1652628
969.10 0.1652087
969.20 0.1651547
969.30 0.1651007
969.40 0.1650467
969.50 0.1649927
969.60 0.1649388
969.70 0.1648849
969.80 0.1648309
969.90 0.1647771
970.00 0.1647232
970.10 0.1646693
970.20 0.1646155
970.30 0.1645617
970.40 0.1645079
970.50 0.1644541
970.60 0.1644004
970.70 0.1643466
970.80 0.1642929
970.90 0.1642393
971.00 0.1641855
971.10 0.1641319
971.20 0.1640783
971.30 0.1640246
971.40 0.163971
971.50 0.1639174
971.60 0.1638639
971.70 0.1638106
971.80 0.1637572
971.90 0.1637039
972.00 0.1636507
972.10 0.1635973
972.20 0.1635441
972.30 0.1634909
972.40 0.1634376
972.50 0.1633844
972.60 0.1633312
972.70 0.163278
972.80 0.1632249
972.90 0.1631717
973.00 0.1631186
973.10 0.1630656
973.20 0.1630124
973.30 0.1629594
973.40 0.1629063
973.50 0.1628533
973.60 0.1628003
973.70 0.1627473
973.80 0.1626944
973.90 0.1626414
974.00 0.1625884
974.10 0.1625356
974.20 0.1624826
974.30 0.1624298
974.40 0.1623769
974.50 0.162324
974.60 0.1622713
974.70 0.1622184
974.80 0.1621656
974.90 0.1621129
975.00 0.1620601
975.10 0.1620074
975.20 0.1619546
975.30 0.161902
975.40 0.1618493
975.50 0.1617966
975.60 0.161744
975.70 0.1616913
975.80 0.1616388
975.90 0.1615862
976.00 0.1615336
976.10 0.1614811
976.20 0.1614285
976.30 0.161376
976.40 0.1613235
976.50 0.161271
976.60 0.1612186
976.70 0.1611661
976.80 0.1611137
976.90 0.1610613
977.00 0.1610089
977.10 0.1609565
977.20 0.1609042
977.30 0.1608519
977.40 0.1607995
977.50 0.1607473
977.60 0.1606949
977.70 0.1606427
977.80 0.1605904
977.90 0.1605382
978.00 0.1604861
978.10 0.1604338
978.20 0.1603817
978.30 0.1603295
978.40 0.1602774
978.50 0.1602252
978.60 0.1601732
978.70 0.160121
978.80 0.160069
978.90 0.160017
979.00 0.1599649
979.10 0.159913
979.20 0.1598609
979.30 0.159809
979.40 0.159757
979.50 0.1597051
979.60 0.1596531
979.70 0.1596012
979.80 0.1595493
979.90 0.1594975
980.00 0.1594457
980.10 0.1593938
980.20 0.159342
980.30 0.1592902
980.40 0.1592384
980.50 0.1591866
980.60 0.1591349
980.70 0.1590832
980.80 0.1590315
980.90 0.1589798
981.00 0.1589281
981.10 0.1588764
981.20 0.1588248
981.30 0.1587733
981.40 0.1587219
981.50 0.1586705
981.60 0.1586191
981.70 0.1585677
981.80 0.1585165
981.90 0.1584651
982.00 0.1584138
982.10 0.1583625
982.20 0.1583113
982.30 0.15826
982.40 0.1582088
982.50 0.1581575
982.60 0.1581064
982.70 0.1580552
982.80 0.158004
982.90 0.1579529
983.00 0.1579018
983.10 0.1578506
983.20 0.1577996
983.30 0.1577485
983.40 0.1576975
983.50 0.1576464
983.60 0.1575954
983.70 0.1575443
983.80 0.1574934
983.90 0.1574424
984.00 0.1573915
984.10 0.1573405
984.20 0.1572896
984.30 0.1572387
984.40 0.1571879
984.50 0.157137
984.60 0.1570861
984.70 0.1570353
984.80 0.1569844
984.90 0.1569337
985.00 0.1568829
985.10 0.1568322
985.20 0.1567814
985.30 0.1567307
985.40 0.1566799
985.50 0.1566293
985.60 0.1565786
985.70 0.156528
985.80 0.1564773
985.90 0.1564266
986.00 0.1563761
986.10 0.1563255
986.20 0.1562749
986.30 0.1562243
986.40 0.1561739
986.50 0.1561233
986.60 0.1560729
986.70 0.1560223
986.80 0.1559718
986.90 0.1559214
987.00 0.155871
987.10 0.1558206
987.20 0.1557702
987.30 0.1557198
987.40 0.1556694
987.50 0.1556191
987.60 0.1555688
987.70 0.1555184
987.80 0.1554682
987.90 0.1554179
988.00 0.1553677
988.10 0.1553174
988.20 0.1552672
988.30 0.155217
988.40 0.1551667
988.50 0.1551166
988.60 0.1550664
988.70 0.1550163
988.80 0.1549662
988.90 0.154916
989.00 0.154866
989.10 0.1548159
989.20 0.1547659
989.30 0.1547158
989.40 0.1546658
989.50 0.1546158
989.60 0.1545658
989.70 0.1545159
989.80 0.1544659
989.90 0.154416
990.00 0.154366
990.10 0.1543161
990.20 0.1542663
990.30 0.1542164
990.40 0.1541666
990.50 0.1541167
990.60 0.1540668
990.70 0.1540171
990.80 0.1539673
990.90 0.1539176
991.00 0.1538678
991.10 0.1538181
991.20 0.1537686
991.30 0.1537191
991.40 0.1536696
991.50 0.1536201
991.60 0.1535706
991.70 0.1535212
991.80 0.1534718
991.90 0.1534223
992.00 0.153373
992.10 0.1533236
992.20 0.1532742
992.30 0.1532249
992.40 0.1531755
992.50 0.1531263
992.60 0.1530769
992.70 0.1530276
992.80 0.1529784
992.90 0.1529291
993.00 0.1528799
993.10 0.1528307
993.20 0.1527815
993.30 0.1527323
993.40 0.1526832
993.50 0.152634
993.60 0.1525848
993.70 0.1525358
993.80 0.1524867
993.90 0.1524377
994.00 0.1523886
994.10 0.1523395
994.20 0.1522905
994.30 0.1522415
994.40 0.1521924
994.50 0.1521435
994.60 0.1520945
994.70 0.1520456
994.80 0.1519967
994.90 0.1519477
995.00 0.1518988
995.10 0.15185
995.20 0.1518011
995.30 0.1517522
995.40 0.1517035
995.50 0.1516546
995.60 0.1516058
995.70 0.1515571
995.80 0.1515083
995.90 0.1514595
996.00 0.1514108
996.10 0.1513621
996.20 0.1513134
996.30 0.1512648
996.40 0.1512161
996.50 0.1511674
996.60 0.1511187
996.70 0.1510702
996.80 0.1510216
996.90 0.150973
997.00 0.1509245
997.10 0.1508759
997.20 0.1508273
997.30 0.1507789
997.40 0.1507304
997.50 0.1506819
997.60 0.1506335
997.70 0.150585
997.80 0.1505365
997.90 0.1504882
998.00 0.1504398
998.10 0.1503913
998.20 0.150343
998.30 0.1502947
998.40 0.1502463
998.50 0.150198
998.60 0.1501497
998.70 0.1501014
998.80 0.1500531
998.90 0.1500049
999.00 0.1499567
999.10 0.1499084
999.20 0.1498602
999.30 0.1498121
999.40 0.1497639
999.50 0.1497157
999.60 0.1496676
999.70 0.1496195
999.80 0.1495714
999.90 0.1495233
1000.00 0.1494753
1000.10 0.1494272
1000.20 0.1493791
1000.30 0.1493311
1000.40 0.1492831
1000.50 0.1492351
1000.60 0.1491871
1000.70 0.1491392
1000.80 0.1490913
1000.90 0.1490433
1001.00 0.1489954
1001.10 0.1489478
1001.20 0.1489001
1001.30 0.1488523
1001.40 0.1488046
1001.50 0.1487571
1001.60 0.1487094
1001.70 0.1486618
1001.80 0.1486141
1001.90 0.1485666
1002.00 0.148519
1002.10 0.1484715
1002.20 0.1484239
1002.30 0.1483764
1002.40 0.1483289
1002.50 0.1482814
1002.60 0.1482339
1002.70 0.1481864
1002.80 0.1481391
1002.90 0.1480916
1003.00 0.1480442
1003.10 0.1479968
1003.20 0.1479494
1003.30 0.1479021
1003.40 0.1478547
1003.50 0.1478073
1003.60 0.1477601
1003.70 0.1477128
1003.80 0.1476655
1003.90 0.1476182
1004.00 0.1475709
1004.10 0.1475238
1004.20 0.1474765
1004.30 0.1474293
1004.40 0.1473821
1004.50 0.147335
1004.60 0.1472878
1004.70 0.1472406
1004.80 0.1471935
1004.90 0.1471464
1005.00 0.1470993
1005.10 0.1470523
1005.20 0.1470052
1005.30 0.1469581
1005.40 0.1469111
1005.50 0.1468641
1005.60 0.1468171
1005.70 0.1467701
1005.80 0.1467231
1005.90 0.1466762
1006.00 0.1466293
1006.10 0.1465823
1006.20 0.1465354
1006.30 0.1464885
1006.40 0.1464417
1006.50 0.1463948
1006.60 0.146348
1006.70 0.1463011
1006.80 0.1462543
1006.90 0.1462075
1007.00 0.1461608
1007.10 0.146114
1007.20 0.1460672
1007.30 0.1460205
1007.40 0.1459737
1007.50 0.1459271
1007.60 0.1458804
1007.70 0.1458337
1007.80 0.145787
1007.90 0.1457404
1008.00 0.1456938
1008.10 0.1456472
1008.20 0.1456006
1008.30 0.145554
1008.40 0.1455074
1008.50 0.1454609
1008.60 0.1454144
1008.70 0.1453679
1008.80 0.1453214
1008.90 0.1452749
1009.00 0.1452284
1009.10 0.1451819
1009.20 0.1451355
1009.30 0.1450891
1009.40 0.1450427
1009.50 0.1449963
1009.60 0.1449499
1009.70 0.1449035
1009.80 0.1448573
1009.90 0.1448109
1010.00 0.1447646
1010.10 0.1447183
1010.20 0.144672
1010.30 0.1446257
1010.40 0.1445795
1010.50 0.1445333
1010.60 0.144487
1010.70 0.1444408
1010.80 0.1443946
1010.90 0.1443484
1011.00 0.1443023
1011.10 0.1442564
1011.20 0.1442104
1011.30 0.1441645
1011.40 0.1441186
1011.50 0.1440726
1011.60 0.1440267
1011.70 0.1439808
1011.80 0.143935
1011.90 0.1438892
1012.00 0.1438434
1012.10 0.1437976
1012.20 0.1437517
1012.30 0.143706
1012.40 0.1436602
1012.50 0.1436144
1012.60 0.1435687
1012.70 0.143523
1012.80 0.1434773
1012.90 0.1434316
1013.00 0.1433859
1013.10 0.1433403
1013.20 0.1432946
1013.30 0.143249
1013.40 0.1432033
1013.50 0.1431577
1013.60 0.1431122
1013.70 0.1430667
1013.80 0.1430211
1013.90 0.1429755
1014.00 0.14293
1014.10 0.1428845
1014.20 0.142839
1014.30 0.1427935
1014.40 0.142748
1014.50 0.1427027
1014.60 0.1426572
1014.70 0.1426118
1014.80 0.1425664
1014.90 0.142521
1015.00 0.1424756
1015.10 0.1424302
1015.20 0.1423849
1015.30 0.1423396
1015.40 0.1422942
1015.50 0.1422489
1015.60 0.1422038
1015.70 0.1421585
1015.80 0.1421132
1015.90 0.142068
1016.00 0.1420227
1016.10 0.1419775
1016.20 0.1419323
1016.30 0.1418871
1016.40 0.141842
1016.50 0.1417968
1016.60 0.1417517
1016.70 0.1417066
1016.80 0.1416616
1016.90 0.1416165
1017.00 0.1415714
1017.10 0.1415263
1017.20 0.1414813
1017.30 0.1414362
1017.40 0.1413912
1017.50 0.1413462
1017.60 0.1413012
1017.70 0.1412563
1017.80 0.1412113
1017.90 0.1411664
1018.00 0.1411214
1018.10 0.1410765
1018.20 0.1410317
1018.30 0.1409869
1018.40 0.140942
1018.50 0.1408971
1018.60 0.1408523
1018.70 0.1408075
1018.80 0.1407627
1018.90 0.1407179
1019.00 0.1406731
1019.10 0.1406283
1019.20 0.1405836
1019.30 0.1405389
1019.40 0.1404941
1019.50 0.1404494
1019.60 0.1404048
1019.70 0.1403601
1019.80 0.1403154
1019.90 0.1402708
1020.00 0.1402262
1020.10 0.1401815
1020.20 0.140137
1020.30 0.1400925
1020.40 0.1400479
1020.50 0.1400033
1020.60 0.1399588
1020.70 0.1399143
1020.80 0.1398698
1020.90 0.1398253
1021.00 0.1397808
1021.10 0.1397364
1021.20 0.1396932
1021.30 0.13965
1021.40 0.1396068
1021.50 0.1395637
1021.60 0.1395205
1021.70 0.1394774
1021.80 0.1394341
1021.90 0.139391
1022.00 0.1393479
1022.10 0.1393048
1022.20 0.1392618
1022.30 0.1392187
1022.40 0.1391757
1022.50 0.1391326
1022.60 0.1390896
1022.70 0.1390466
1022.80 0.1390036
1022.90 0.1389607
1023.00 0.1389177
1023.10 0.1388748
1023.20 0.1388318
1023.30 0.1387888
1023.40 0.1387459
1023.50 0.138703
1023.60 0.1386602
1023.70 0.1386173
1023.80 0.1385745
1023.90 0.1385316
1024.00 0.1384888
1024.10 0.138446
1024.20 0.1384032
1024.30 0.1383605
1024.40 0.1383177
1024.50 0.138275
1024.60 0.1382321
1024.70 0.1381894
1024.80 0.1381467
1024.90 0.138104
1025.00 0.1380614
1025.10 0.1380187
1025.20 0.1379761
1025.30 0.1379334
1025.40 0.1378908
1025.50 0.1378482
1025.60 0.1378056
1025.70 0.137763
1025.80 0.1377204
1025.90 0.1376779
1026.00 0.1376353
1026.10 0.1375928
1026.20 0.1375503
1026.30 0.1375067
1026.40 0.1374632
1026.50 0.1374197
1026.60 0.1373762
1026.70 0.1373327
1026.80 0.1372892
1026.90 0.1372458
1027.00 0.1372023
1027.10 0.1371589
1027.20 0.1371155
1027.30 0.1370721
1027.40 0.1370287
1027.50 0.1369853
1027.60 0.1369419
1027.70 0.1368985
1027.80 0.1368552
1027.90 0.1368119
1028.00 0.1367686
1028.10 0.1367253
1028.20 0.136682
1028.30 0.1366388
1028.40 0.1365955
1028.50 0.1365523
1028.60 0.1365091
1028.70 0.1364659
1028.80 0.1364227
1028.90 0.1363795
1029.00 0.1363363
1029.10 0.1362932
1029.20 0.1362501
1029.30 0.136207
1029.40 0.1361639
1029.50 0.1361207
1029.60 0.1360776
1029.70 0.1360345
1029.80 0.1359915
1029.90 0.1359485
1030.00 0.1359055
1030.10 0.1358625
1030.20 0.1358195
1030.30 0.1357765
1030.40 0.1357335
1030.50 0.1356906
1030.60 0.1356477
1030.70 0.1356047
1030.80 0.1355618
1030.90 0.135519
1031.00 0.135476
1031.10 0.1354331
1031.20 0.1353903
1031.30 0.1353474
1031.40 0.1353048
1031.50 0.1352622
1031.60 0.1352195
1031.70 0.1351769
1031.80 0.1351343
1031.90 0.1350918
1032.00 0.1350492
1032.10 0.1350066
1032.20 0.134964
1032.30 0.1349215
1032.40 0.134879
1032.50 0.1348365
1032.60 0.134794
1032.70 0.1347516
1032.80 0.1347091
1032.90 0.1346667
1033.00 0.1346242
1033.10 0.1345817
1033.20 0.1345393
1033.30 0.134497
1033.40 0.1344546
1033.50 0.1344122
1033.60 0.1343699
1033.70 0.1343276
1033.80 0.1342853
1033.90 0.134243
1034.00 0.1342006
1034.10 0.1341583
1034.20 0.1341161
1034.30 0.1340738
1034.40 0.1340316
1034.50 0.1339894
1034.60 0.1339472
1034.70 0.133905
1034.80 0.1338627
1034.90 0.1338206
1035.00 0.1337784
1035.10 0.1337363
1035.20 0.1336942
1035.30 0.1336521
1035.40 0.13361
1035.50 0.1335679
1035.60 0.1335257
1035.70 0.1334837
1035.80 0.1334417
1035.90 0.1333996
1036.00 0.1333576
1036.10 0.1333156
1036.20 0.1332737
1036.30 0.1332317
1036.40 0.1331896
1036.50 0.1331481
1036.60 0.1331072
1036.70 0.1330663
1036.80 0.1330254
1036.90 0.1329845
1037.00 0.1329436
1037.10 0.1329028
1037.20 0.132862
1037.30 0.1328212
1037.40 0.1327803
1037.50 0.1327395
1037.60 0.1326987
1037.70 0.1326579
1037.80 0.1326171
1037.90 0.1325764
1038.00 0.1325357
1038.10 0.132495
1038.20 0.1324543
1038.30 0.1324135
1038.40 0.1323728
1038.50 0.1323322
1038.60 0.1322915
1038.70 0.1322508
1038.80 0.1322102
1038.90 0.1321696
1039.00 0.132129
1039.10 0.1320885
1039.20 0.1320478
1039.30 0.1320073
1039.40 0.1319667
1039.50 0.1319262
1039.60 0.1318856
1039.70 0.1318451
1039.80 0.1318046
1039.90 0.1317642
1040.00 0.1317236
1040.10 0.1316832
1040.20 0.1316428
1040.30 0.1316024
1040.40 0.1315619
1040.50 0.1315215
1040.60 0.1314811
1040.70 0.1314407
1040.80 0.1314003
1040.90 0.13136
1041.00 0.1313196
1041.10 0.1312793
1041.20 0.1312389
1041.30 0.1311987
1041.40 0.1311584
1041.50 0.1311181
1041.60 0.1310778
1041.70 0.1310369
1041.80 0.1309958
1041.90 0.1309548
1042.00 0.1309137
1042.10 0.1308726
1042.20 0.1308316
1042.30 0.1307906
1042.40 0.1307496
1042.50 0.1307086
1042.60 0.1306676
1042.70 0.1306266
1042.80 0.1305857
1042.90 0.1305448
1043.00 0.1305039
1043.10 0.1304629
1043.20 0.130422
1043.30 0.1303812
1043.40 0.1303403
1043.50 0.1302995
1043.60 0.1302585
1043.70 0.1302177
1043.80 0.1301769
1043.90 0.1301362
1044.00 0.1300953
1044.10 0.1300545
1044.20 0.1300138
1044.30 0.1299731
1044.40 0.1299323
1044.50 0.1298915
1044.60 0.1298509
1044.70 0.1298102
1044.80 0.1297695
1044.90 0.1297288
1045.00 0.1296881
1045.10 0.1296475
1045.20 0.1296069
1045.30 0.1295663
1045.40 0.1295256
1045.50 0.129485
1045.60 0.1294445
1045.70 0.1294039
1045.80 0.1293633
1045.90 0.1293228
1046.00 0.1292823
1046.10 0.1292418
1046.20 0.1292012
1046.30 0.1291608
1046.40 0.1291203
1046.50 0.1290799
1046.60 0.1290393
1046.70 0.1289989
1046.80 0.1289585
1046.90 0.1289181
1047.00 0.1288778
1047.10 0.1288373
1047.20 0.128797
1047.30 0.1287566
1047.40 0.1287163
1047.50 0.1286759
1047.60 0.1286356
1047.70 0.1285953
1047.80 0.1285551
1047.90 0.1285147
1048.00 0.1284745
1048.10 0.1284343
1048.20 0.128394
1048.30 0.1283537
1048.40 0.1283135
1048.50 0.1282734
1048.60 0.1282331
1048.70 0.128193
1048.80 0.1281528
1048.90 0.1281127
1049.00 0.1280725
1049.10 0.1280324
1049.20 0.1279923
1049.30 0.1279522
1049.40 0.1279121
1049.50 0.127872
1049.60 0.127832
1049.70 0.127792
1049.80 0.1277519
1049.90 0.1277119
1050.00 0.1276719
1050.10 0.1276318
1050.20 0.1275919
1050.30 0.127552
1050.40 0.127512
1050.50 0.127472
1050.60 0.1274321
1050.70 0.1273922
1050.80 0.1273523
1050.90 0.1273124
1051.00 0.1272725
1051.10 0.1272327
1051.20 0.1271928
1051.30 0.127153
1051.40 0.1271132
1051.50 0.1270734
1051.60 0.1270335
1051.70 0.1269938
1051.80 0.126954
1051.90 0.1269142
1052.00 0.1268745
1052.10 0.1268352
1052.20 0.126796
1052.30 0.126757
1052.40 0.126718
1052.50 0.1266788
1052.60 0.1266398
1052.70 0.1266009
1052.80 0.1265618
1052.90 0.1265228
1053.00 0.1264839
1053.10 0.1264448
1053.20 0.1264059
1053.30 0.126367
1053.40 0.126328
1053.50 0.1262891
1053.60 0.1262502
1053.70 0.1262113
1053.80 0.1261724
1053.90 0.1261336
1054.00 0.1260947
1054.10 0.1260559
1054.20 0.1260171
1054.30 0.1259782
1054.40 0.1259394
1054.50 0.1259006
1054.60 0.1258618
1054.70 0.125823
1054.80 0.1257843
1054.90 0.1257455
1055.00 0.1257068
1055.10 0.125668
1055.20 0.1256294
1055.30 0.1255907
1055.40 0.1255519
1055.50 0.1255133
1055.60 0.1254747
1055.70 0.125436
1055.80 0.1253974
1055.90 0.1253588
1056.00 0.1253201
1056.10 0.1252816
1056.20 0.1252429
1056.30 0.1252044
1056.40 0.1251658
1056.50 0.1251272
1056.60 0.1250887
1056.70 0.1250502
1056.80 0.1250117
1056.90 0.1249732
1057.00 0.1249347
1057.10 0.1248962
1057.20 0.1248578
1057.30 0.1248193
1057.40 0.1247809
1057.50 0.1247425
1057.60 0.124704
1057.70 0.1246657
1057.80 0.1246272
1057.90 0.1245889
1058.00 0.1245505
1058.10 0.1245121
1058.20 0.1244738
1058.30 0.1244355
1058.40 0.1243972
1058.50 0.1243589
1058.60 0.1243206
1058.70 0.1242823
1058.80 0.1242441
1058.90 0.1242058
1059.00 0.1241676
1059.10 0.1241293
1059.20 0.1240911
1059.30 0.1240529
1059.40 0.1240147
1059.50 0.1239765
1059.60 0.1239383
1059.70 0.1239002
1059.80 0.1238621
1059.90 0.1238239
1060.00 0.1237858
1060.10 0.1237477
1060.20 0.1237096
1060.30 0.1236716
1060.40 0.1236334
1060.50 0.1235954
1060.60 0.1235573
1060.70 0.1235193
1060.80 0.1234813
1060.90 0.1234433
1061.00 0.1234053
1061.10 0.1233673
1061.20 0.1233293
1061.30 0.1232914
1061.40 0.1232534
1061.50 0.1232155
1061.60 0.1231775
1061.70 0.1231396
1061.80 0.1231017
1061.90 0.1230638
1062.00 0.123026
1062.10 0.1229881
1062.20 0.1229503
1062.30 0.1229124
1062.40 0.1228746
1062.50 0.1228368
1062.60 0.1227992
1062.70 0.1227621
1062.80 0.1227249
1062.90 0.1226878
1063.00 0.1226506
1063.10 0.1226135
1063.20 0.1225763
1063.30 0.1225393
1063.40 0.1225021
1063.50 0.1224651
1063.60 0.122428
1063.70 0.1223909
1063.80 0.1223538
1063.90 0.1223168
1064.00 0.1222799
1064.10 0.1222428
1064.20 0.1222059
1064.30 0.1221688
1064.40 0.1221319
1064.50 0.1220949
1064.60 0.122058
1064.70 0.122021
1064.80 0.1219841
1064.90 0.1219471
1065.00 0.1219102
1065.10 0.1218733
1065.20 0.1218365
1065.30 0.1217995
1065.40 0.1217627
1065.50 0.1217258
1065.60 0.121689
1065.70 0.1216522
1065.80 0.1216154
1065.90 0.1215785
1066.00 0.1215418
1066.10 0.121505
1066.20 0.1214683
1066.30 0.1214314
1066.40 0.1213948
1066.50 0.121358
1066.60 0.1213213
1066.70 0.1212845
1066.80 0.1212479
1066.90 0.1212112
1067.00 0.1211745
1067.10 0.1211378
1067.20 0.1211012
1067.30 0.1210645
1067.40 0.1210279
1067.50 0.1209913
1067.60 0.1209547
1067.70 0.1209181
1067.80 0.1208816
1067.90 0.1208446
1068.00 0.1208072
1068.10 0.1207697
1068.20 0.1207322
1068.30 0.1206948
1068.40 0.1206573
1068.50 0.1206199
1068.60 0.1205825
1068.70 0.1205451
1068.80 0.1205077
1068.90 0.1204703
1069.00 0.120433
1069.10 0.1203956
1069.20 0.1203583
1069.30 0.1203209
1069.40 0.1202836
1069.50 0.1202462
1069.60 0.120209
1069.70 0.1201716
1069.80 0.1201344
1069.90 0.1200971
1070.00 0.1200599
1070.10 0.1200226
1070.20 0.1199854
1070.30 0.1199482
1070.40 0.119911
1070.50 0.1198738
1070.60 0.1198366
1070.70 0.1197995
1070.80 0.1197623
1070.90 0.1197252
1071.00 0.119688
1071.10 0.1196509
1071.20 0.1196137
1071.30 0.1195767
1071.40 0.1195395
1071.50 0.1195025
1071.60 0.1194654
1071.70 0.1194284
1071.80 0.1193914
1071.90 0.1193543
1072.00 0.1193174
1072.10 0.1192803
1072.20 0.1192434
1072.30 0.1192063
1072.40 0.1191694
1072.50 0.1191324
1072.60 0.1190955
1072.70 0.1190585
1072.80 0.1190216
1072.90 0.1189847
1073.00 0.1189478
1073.10 0.1189109
1073.20 0.1188743
1073.30 0.1188384
1073.40 0.1188027
1073.50 0.1187669
1073.60 0.1187311
1073.70 0.1186953
1073.80 0.1186595
1073.90 0.1186239
1074.00 0.1185881
1074.10 0.1185524
1074.20 0.1185167
1074.30 0.118481
1074.40 0.1184453
1074.50 0.1184097
1074.60 0.118374
1074.70 0.1183383
1074.80 0.1183027
1074.90 0.1182671
1075.00 0.1182315
1075.10 0.1181959
1075.20 0.1181603
1075.30 0.1181247
1075.40 0.1180891
1075.50 0.1180536
1075.60 0.118018
1075.70 0.1179825
1075.80 0.117947
1075.90 0.1179114
1076.00 0.1178759
1076.10 0.1178404
1076.20 0.117805
1076.30 0.1177695
1076.40 0.1177341
1076.50 0.1176986
1076.60 0.1176631
1076.70 0.1176277
1076.80 0.1175923
1076.90 0.1175569
1077.00 0.1175215
1077.10 0.1174862
1077.20 0.1174508
1077.30 0.1174154
1077.40 0.1173801
1077.50 0.1173447
1077.60 0.1173095
1077.70 0.1172741
1077.80 0.1172388
1077.90 0.1172035
1078.00 0.1171682
1078.10 0.117133
1078.20 0.1170977
1078.30 0.1170624
1078.40 0.1170272
1078.50 0.116992
1078.60 0.1169568
1078.70 0.1169216
1078.80 0.1168863
1078.90 0.1168512
1079.00 0.116816
1079.10 0.1167809
1079.20 0.1167457
1079.30 0.1167105
1079.40 0.1166755
1079.50 0.1166403
1079.60 0.1166053
1079.70 0.1165701
1079.80 0.116535
1079.90 0.1165
1080.00 0.1164649
1080.10 0.1164299
1080.20 0.1163948
1080.30 0.1163598
1080.40 0.1163248
1080.50 0.1162898
1080.60 0.1162548
1080.70 0.1162198
1080.80 0.1161848
1080.90 0.1161499
1081.00 0.1161149
1081.10 0.11608
1081.20 0.1160451
1081.30 0.1160101
1081.40 0.1159753
1081.50 0.1159404
1081.60 0.1159054
1081.70 0.1158706
1081.80 0.1158357
1081.90 0.1158008
1082.00 0.115766
1082.10 0.1157312
1082.20 0.1156964
1082.30 0.1156616
1082.40 0.1156267
1082.50 0.115592
1082.60 0.1155572
1082.70 0.1155224
1082.80 0.1154877
1082.90 0.1154529
1083.00 0.1154183
1083.10 0.1153835
1083.20 0.1153488
1083.30 0.1153141
1083.40 0.1152794
1083.50 0.1152447
1083.60 0.1152101
1083.70 0.1151754
1083.80 0.1151407
1083.90 0.1151061
1084.00 0.1150708
1084.10 0.1150355
1084.20 0.1150001
1084.30 0.1149647
1084.40 0.1149295
1084.50 0.1148941
1084.60 0.1148588
1084.70 0.1148235
1084.80 0.1147883
1084.90 0.114753
1085.00 0.1147177
1085.10 0.1146825
1085.20 0.1146472
1085.30 0.114612
1085.40 0.1145768
1085.50 0.1145415
1085.60 0.1145064
1085.70 0.1144711
1085.80 0.114436
1085.90 0.1144008
1086.00 0.1143656
1086.10 0.1143306
1086.20 0.1142954
1086.30 0.1142603
1086.40 0.1142252
1086.50 0.11419
1086.60 0.114155
1086.70 0.1141199
1086.80 0.1140848
1086.90 0.1140498
1087.00 0.1140147
1087.10 0.1139797
1087.20 0.1139447
1087.30 0.1139096
1087.40 0.1138747
1087.50 0.1138397
1087.60 0.1138048
1087.70 0.1137697
1087.80 0.1137348
1087.90 0.1136999
1088.00 0.1136649
1088.10 0.11363
1088.20 0.1135951
1088.30 0.1135601
1088.40 0.1135253
1088.50 0.1134904
1088.60 0.1134555
1088.70 0.1134207
1088.80 0.1133858
1088.90 0.113351
1089.00 0.1133162
1089.10 0.1132813
1089.20 0.1132466
1089.30 0.1132118
1089.40 0.1131776
1089.50 0.1131437
1089.60 0.1131098
1089.70 0.1130759
1089.80 0.1130421
1089.90 0.1130082
1090.00 0.1129743
1090.10 0.1129406
1090.20 0.1129067
1090.30 0.1128729
1090.40 0.112839
1090.50 0.1128053
1090.60 0.1127715
1090.70 0.1127377
1090.80 0.112704
1090.90 0.1126702
1091.00 0.1126365
1091.10 0.1126028
1091.20 0.112569
1091.30 0.1125353
1091.40 0.1125016
1091.50 0.112468
1091.60 0.1124342
1091.70 0.1124006
1091.80 0.112367
1091.90 0.1123333
1092.00 0.1122996
1092.10 0.1122661
1092.20 0.1122324
1092.30 0.1121988
1092.40 0.1121652
1092.50 0.1121317
1092.60 0.1120981
1092.70 0.1120645
1092.80 0.112031
1092.90 0.1119974
1093.00 0.1119638
1093.10 0.1119303
1093.20 0.1118969
1093.30 0.1118633
1093.40 0.1118298
1093.50 0.1117964
1093.60 0.1117629
1093.70 0.1117294
1093.80 0.1116959
1093.90 0.1116626
1094.00 0.1116291
1094.10 0.1115957
1094.20 0.1115623
1094.30 0.1115289
1094.40 0.1114955
1094.50 0.1114621
1094.60 0.1114288
1094.70 0.1113954
1094.80 0.1113621
1094.90 0.1113289
1095.00 0.1112958
1095.10 0.1112625
1095.20 0.1112293
1095.30 0.1111963
1095.40 0.1111631
1095.50 0.1111299
1095.60 0.1110968
1095.70 0.1110637
1095.80 0.1110306
1095.90 0.1109974
1096.00 0.1109643
1096.10 0.1109313
1096.20 0.1108982
1096.30 0.1108651
1096.40 0.1108321
1096.50 0.1107991
1096.60 0.110766
1096.70 0.110733
1096.80 0.1107
1096.90 0.110667
1097.00 0.110634
1097.10 0.110601
1097.20 0.110568
1097.30 0.1105351
1097.40 0.1105022
1097.50 0.1104692
1097.60 0.1104362
1097.70 0.1104034
1097.80 0.1103705
1097.90 0.1103375
1098.00 0.1103046
1098.10 0.1102718
1098.20 0.1102389
1098.30 0.1102061
1098.40 0.1101732
1098.50 0.1101404
1098.60 0.1101076
1098.70 0.1100747
1098.80 0.1100419
1098.90 0.1100091
1099.00 0.1099764
1099.10 0.1099436
1099.20 0.1099108
1099.30 0.109878
1099.40 0.1098453
1099.50 0.1098126
1099.60 0.1097798
1099.70 0.1097471
1099.80 0.1097145
1099.90 0.1096817
1100.00 0.109649
1100.10 0.1096163
1100.20 0.1095837
1100.30 0.1095511
1100.40 0.1095184
1100.50 0.1094857
1100.60 0.1094531
1100.70 0.1094206
1100.80 0.1093879
1100.90 0.1093553
1101.00 0.1093227
1101.10 0.1092902
1101.20 0.1092576
1101.30 0.109225
1101.40 0.1091925
1101.50 0.1091599
1101.60 0.1091275
1101.70 0.1090949
1101.80 0.1090624
1101.90 0.1090299
1102.00 0.1089975
1102.10 0.108965
1102.20 0.1089325
1102.30 0.1089
1102.40 0.1088676
1102.50 0.1088352
1102.60 0.1088028
1102.70 0.1087703
1102.80 0.1087379
1102.90 0.1087055
1103.00 0.1086732
1103.10 0.1086408
1103.20 0.1086084
1103.30 0.108576
1103.40 0.1085436
1103.50 0.1085114
1103.60 0.108479
1103.70 0.1084467
1103.80 0.1084144
1103.90 0.1083821
1104.00 0.1083499
1104.10 0.1083176
1104.20 0.1082853
1104.30 0.108253
1104.40 0.1082207
1104.50 0.1081886
1104.60 0.1081563
1104.70 0.1081241
1104.80 0.1080919
1104.90 0.1080597
1105.00 0.1080275
1105.10 0.1079954
1105.20 0.1079632
1105.30 0.107931
1105.40 0.1078988
1105.50 0.1078668
1105.60 0.1078346
1105.70 0.1078025
1105.80 0.1077701
1105.90 0.1077376
1106.00 0.1077053
1106.10 0.107673
1106.20 0.1076406
1106.30 0.1076082
1106.40 0.1075758
1106.50 0.1075436
1106.60 0.1075113
1106.70 0.1074789
1106.80 0.1074466
1106.90 0.1074143
1107.00 0.1073821
1107.10 0.1073498
1107.20 0.1073175
1107.30 0.1072852
1107.40 0.107253
1107.50 0.1072208
1107.60 0.1071886
1107.70 0.1071564
1107.80 0.1071241
1107.90 0.1070919
1108.00 0.1070598
1108.10 0.1070276
1108.20 0.1069955
1108.30 0.1069633
1108.40 0.1069311
1108.50 0.1068991
1108.60 0.1068669
1108.70 0.1068348
1108.80 0.1068027
1108.90 0.1067706
1109.00 0.1067386
1109.10 0.1067065
1109.20 0.1066744
1109.30 0.1066423
1109.40 0.1066103
1109.50 0.1065783
1109.60 0.1065463
1109.70 0.1065142
1109.80 0.1064822
1109.90 0.1064502
1110.00 0.1064182
1110.10 0.1063863
1110.20 0.1063543
1110.30 0.1063223
1110.40 0.1062904
1110.50 0.1062584
1110.60 0.1062265
1110.70 0.1061946
1110.80 0.1061627
1110.90 0.1061308
1111.00 0.1060989
1111.10 0.106067
1111.20 0.1060352
1111.30 0.1060033
1111.40 0.1059715
1111.50 0.1059396
1111.60 0.1059078
1111.70 0.1058759
1111.80 0.1058442
1111.90 0.1058124
1112.00 0.1057806
1112.10 0.1057488
1112.20 0.105717
1112.30 0.1056852
1112.40 0.1056536
1112.50 0.1056218
1112.60 0.1055901
1112.70 0.1055583
1112.80 0.1055266
1112.90 0.1054949
1113.00 0.1054633
1113.10 0.1054316
1113.20 0.1053999
1113.30 0.1053682
1113.40 0.1053365
1113.50 0.1053049
1113.60 0.1052733
1113.70 0.1052417
1113.80 0.1052101
1113.90 0.1051784
1114.00 0.1051468
1114.10 0.1051152
1114.20 0.1050836
1114.30 0.1050521
1114.40 0.1050206
1114.50 0.104989
1114.60 0.1049575
1114.70 0.1049259
1114.80 0.1048944
1114.90 0.104863
1115.00 0.1048314
1115.10 0.1047999
1115.20 0.1047684
1115.30 0.104737
1115.40 0.1047055
1115.50 0.104674
1115.60 0.1046427
1115.70 0.1046112
1115.80 0.1045798
1115.90 0.1045483
1116.00 0.1045169
1116.10 0.1044855
1116.20 0.1044541
1116.30 0.1044228
1116.40 0.1043915
1116.50 0.1043601
1116.60 0.1043287
1116.70 0.1042974
1116.80 0.1042663
1116.90 0.1042355
1117.00 0.1042047
1117.10 0.104174
1117.20 0.1041432
1117.30 0.1041125
1117.40 0.1040817
1117.50 0.104051
1117.60 0.1040203
1117.70 0.1039895
1117.80 0.1039588
1117.90 0.1039281
1118.00 0.1038974
1118.10 0.1038667
1118.20 0.1038362
1118.30 0.1038055
1118.40 0.1037748
1118.50 0.1037442
1118.60 0.1037135
1118.70 0.1036829
1118.80 0.1036523
1118.90 0.1036217
1119.00 0.1035911
1119.10 0.1035605
1119.20 0.1035299
1119.30 0.1034994
1119.40 0.1034689
1119.50 0.1034383
1119.60 0.1034078
1119.70 0.1033772
1119.80 0.1033467
1119.90 0.1033162
1120.00 0.1032857
1120.10 0.1032552
1120.20 0.1032247
1120.30 0.1031942
1120.40 0.1031638
1120.50 0.1031333
1120.60 0.1031029
1120.70 0.1030725
1120.80 0.1030421
1120.90 0.1030116
1121.00 0.1029812
1121.10 0.1029508
1121.20 0.1029204
1121.30 0.10289
1121.40 0.1028597
1121.50 0.1028293
1121.60 0.1027989
1121.70 0.1027686
1121.80 0.1027382
1121.90 0.1027079
1122.00 0.1026777
1122.10 0.1026474
1122.20 0.1026171
1122.30 0.1025868
1122.40 0.1025565
1122.50 0.1025262
1122.60 0.1024959
1122.70 0.1024657
1122.80 0.1024354
1122.90 0.1024052
1123.00 0.102375
1123.10 0.1023447
1123.20 0.1023145
1123.30 0.1022843
1123.40 0.1022541
1123.50 0.102224
1123.60 0.1021939
1123.70 0.1021637
1123.80 0.1021335
1123.90 0.1021034
1124.00 0.1020732
1124.10 0.1020431
1124.20 0.102013
1124.30 0.1019829
1124.40 0.1019528
1124.50 0.1019227
1124.60 0.1018926
1124.70 0.1018625
1124.80 0.1018325
1124.90 0.1018024
1125.00 0.1017723
1125.10 0.1017423
1125.20 0.1017123
1125.30 0.1016823
1125.40 0.1016523
1125.50 0.1016223
1125.60 0.1015923
1125.70 0.1015624
1125.80 0.1015324
1125.90 0.1015024
1126.00 0.1014725
1126.10 0.1014425
1126.20 0.1014126
1126.30 0.1013826
1126.40 0.1013527
1126.50 0.1013228
1126.60 0.1012929
1126.70 0.101263
1126.80 0.1012331
1126.90 0.1012033
1127.00 0.1011734
1127.10 0.1011435
1127.20 0.1011137
1127.30 0.1010838
1127.40 0.101054
1127.50 0.1010242
1127.60 0.1009944
1127.70 0.1009646
1127.80 0.1009348
1127.90 0.100905
1128.00 0.1008753
1128.10 0.1008458
1128.20 0.1008161
1128.30 0.1007865
1128.40 0.1007569
1128.50 0.1007273
1128.60 0.1006977
1128.70 0.1006681
1128.80 0.1006385
1128.90 0.1006089
1129.00 0.1005794
1129.10 0.1005498
1129.20 0.1005202
1129.30 0.1004907
1129.40 0.1004612
1129.50 0.1004317
1129.60 0.1004021
1129.70 0.1003726
1129.80 0.1003432
1129.90 0.1003137
1130.00 0.1002842
1130.10 0.1002547
1130.20 0.1002253
1130.30 0.1001958
1130.40 0.1001664
1130.50 0.1001369
1130.60 0.1001075
1130.70 0.1000781
1130.80 0.1000487
1130.90 0.1000193
1131.00 0.09998989
1131.10 0.09996049
1131.20 0.09993119
1131.30 0.09990179
1131.40 0.09987249
1131.50 0.09984309
1131.60 0.09981379
1131.70 0.09978449
1131.80 0.09975509
1131.90 0.09972579
1132.00 0.09969649
1132.10 0.09966719
1132.20 0.09963799
1132.30 0.09960869
1132.40 0.09957939
1132.50 0.09955019
1132.60 0.09952089
1132.70 0.09949169
1132.80 0.09946249
1132.90 0.09943319
1133.00 0.09940399
1133.10 0.09937478
1133.20 0.09934558
1133.30 0.09931644
1133.40 0.09928727
1133.50 0.0992581
1133.60 0.09922895
1133.70 0.0991998
1133.80 0.09917066
1133.90 0.09914153
1134.00 0.0991124
1134.10 0.09908328
1134.20 0.09905418
1134.30 0.09902508
1134.40 0.098996
1134.50 0.09896692
1134.60 0.09893784
1134.70 0.09890878
1134.80 0.09887973
1134.90 0.09885068
1135.00 0.09882165
1135.10 0.09879262
1135.20 0.0987636
1135.30 0.09873459
1135.40 0.09870559
1135.50 0.0986766
1135.60 0.09864761
1135.70 0.09861864
1135.80 0.09858967
1135.90 0.09856072
1136.00 0.09853176
1136.10 0.09850282
1136.20 0.09847389
1136.30 0.09844497
1136.40 0.09841605
1136.50 0.09838715
1136.60 0.09835825
1136.70 0.09832936
1136.80 0.09830048
1136.90 0.09827161
1137.00 0.09824275
1137.10 0.09821389
1137.20 0.09818505
1137.30 0.09815622
1137.40 0.09812738
1137.50 0.09809857
1137.60 0.09806976
1137.70 0.09804095
1137.80 0.09801216
1137.90 0.09798337
1138.00 0.09795459
1138.10 0.09792583
1138.20 0.09789707
1138.30 0.09786832
1138.40 0.09783958
1138.50 0.09781084
1138.60 0.09778212
1138.70 0.0977534
1138.80 0.09772469
1138.90 0.097696
1139.00 0.0976673
1139.10 0.09763862
1139.20 0.09760995
1139.30 0.09758176
1139.40 0.09755361
1139.50 0.09752545
1139.60 0.0974973
1139.70 0.09746916
1139.80 0.09744103
1139.90 0.09741292
1140.00 0.09738481
1140.10 0.0973567
1140.20 0.0973286
1140.30 0.09730051
1140.40 0.09727243
1140.50 0.09724437
1140.60 0.09721631
1140.70 0.09718825
1140.80 0.09716021
1140.90 0.09713217
1141.00 0.09710414
1141.10 0.09707612
1141.20 0.0970481
1141.30 0.09702011
1141.40 0.09699211
1141.50 0.09696412
1141.60 0.09693614
1141.70 0.09690817
1141.80 0.09688021
1141.90 0.09685225
1142.00 0.09682431
1142.10 0.09679637
1142.20 0.09676844
1142.30 0.09674052
1142.40 0.09671261
1142.50 0.0966847
1142.60 0.09665681
1142.70 0.09662892
1142.80 0.09660104
1142.90 0.09657317
1143.00 0.0965453
1143.10 0.09651745
1143.20 0.0964896
1143.30 0.09646177
1143.40 0.09643394
1143.50 0.09640611
1143.60 0.0963783
1143.70 0.0963505
1143.80 0.0963227
1143.90 0.09629491
1144.00 0.09626713
1144.10 0.09623936
1144.20 0.0962116
1144.30 0.09618384
1144.40 0.0961561
1144.50 0.09612836
1144.60 0.09610063
1144.70 0.09607291
1144.80 0.09604518
1144.90 0.09601748
1145.00 0.09598978
1145.10 0.09596209
1145.20 0.09593441
1145.30 0.09590674
1145.40 0.09587908
1145.50 0.09585142
1145.60 0.09582377
1145.70 0.09579612
1145.80 0.09576849
1145.90 0.09574087
1146.00 0.09571326
1146.10 0.09568565
1146.20 0.09565805
1146.30 0.09563045
1146.40 0.09560287
1146.50 0.0955753
1146.60 0.09554773
1146.70 0.09552018
1146.80 0.09549262
1146.90 0.09546508
1147.00 0.09543755
1147.10 0.09541002
1147.20 0.0953825
1147.30 0.09535499
1147.40 0.09532749
1147.50 0.0953
1147.60 0.09527252
1147.70 0.09524503
1147.80 0.09521756
1147.90 0.09519011
1148.00 0.09516265
1148.10 0.0951352
1148.20 0.09510777
1148.30 0.09508034
1148.40 0.09505292
1148.50 0.09502551
1148.60 0.09499811
1148.70 0.0949707
1148.80 0.09494332
1148.90 0.09491594
1149.00 0.09488856
1149.10 0.0948612
1149.20 0.09483385
1149.30 0.0948065
1149.40 0.09477916
1149.50 0.09475183
1149.60 0.0947245
1149.70 0.09469719
1149.80 0.09466989
1149.90 0.09464258
1150.00 0.09461529
1150.10 0.094588
1150.20 0.09456073
1150.30 0.09453347
1150.40 0.09450621
1150.50 0.09447896
1150.60 0.09445169
1150.70 0.0944242
1150.80 0.09439671
1150.90 0.09436923
1151.00 0.09434175
1151.10 0.09431428
1151.20 0.09428683
1151.30 0.09425938
1151.40 0.09423193
1151.50 0.0942045
1151.60 0.09417708
1151.70 0.09414965
1151.80 0.09412225
1151.90 0.09409485
1152.00 0.09406745
1152.10 0.09404007
1152.20 0.09401269
1152.30 0.09398532
1152.40 0.09395796
1152.50 0.09393061
1152.60 0.09390326
1152.70 0.09387592
1152.80 0.0938486
1152.90 0.09382127
1153.00 0.09379396
1153.10 0.09376666
1153.20 0.09373936
1153.30 0.09371207
1153.40 0.09368479
1153.50 0.09365752
1153.60 0.09363026
1153.70 0.093603
1153.80 0.09357575
1153.90 0.09354851
1154.00 0.09352128
1154.10 0.09349406
1154.20 0.09346684
1154.30 0.09343963
1154.40 0.09341243
1154.50 0.09338524
1154.60 0.09335805
1154.70 0.09333088
1154.80 0.09330371
1154.90 0.09327655
1155.00 0.0932494
1155.10 0.09322226
1155.20 0.09319512
1155.30 0.09316799
1155.40 0.09314087
1155.50 0.09311376
1155.60 0.09308665
1155.70 0.09305956
1155.80 0.09303247
1155.90 0.09300539
1156.00 0.09297832
1156.10 0.09295126
1156.20 0.0929242
1156.30 0.09289715
1156.40 0.09287011
1156.50 0.09284309
1156.60 0.09281606
1156.70 0.09278905
1156.80 0.09276205
1156.90 0.09273505
1157.00 0.09270807
1157.10 0.09268108
1157.20 0.0926541
1157.30 0.09262715
1157.40 0.09260019
1157.50 0.09257324
1157.60 0.0925463
1157.70 0.09251936
1157.80 0.09249244
1157.90 0.09246552
1158.00 0.09243861
1158.10 0.09241171
1158.20 0.09238482
1158.30 0.09235793
1158.40 0.09233106
1158.50 0.09230418
1158.60 0.09227732
1158.70 0.09225047
1158.80 0.09222362
1158.90 0.09219678
1159.00 0.09216996
1159.10 0.09214313
1159.20 0.09211632
1159.30 0.09208952
1159.40 0.09206271
1159.50 0.09203592
1159.60 0.09200914
1159.70 0.09198237
1159.80 0.0919556
1159.90 0.09192884
1160.00 0.09190208
1160.10 0.09187535
1160.20 0.09184861
1160.30 0.09182188
1160.40 0.09179515
1160.50 0.09176845
1160.60 0.09174174
1160.70 0.09171504
1160.80 0.09168835
1160.90 0.09166167
1161.00 0.09163501
1161.10 0.09160834
1161.20 0.09158168
1161.30 0.09155503
1161.40 0.09152838
1161.50 0.09150175
1161.60 0.09147513
1161.70 0.09144851
1161.80 0.0914219
1161.90 0.0913953
1162.00 0.0913687
1162.10 0.09134211
1162.20 0.09131636
1162.30 0.0912906
1162.40 0.09126486
1162.50 0.09123913
1162.60 0.0912134
1162.70 0.09118768
1162.80 0.09116197
1162.90 0.09113627
1163.00 0.09111056
1163.10 0.09108488
1163.20 0.09105919
1163.30 0.09103352
1163.40 0.09100785
1163.50 0.09098219
1163.60 0.09095653
1163.70 0.09093089
1163.80 0.09090525
1163.90 0.09087963
1164.00 0.090854
1164.10 0.09082839
1164.20 0.09080278
1164.30 0.09077718
1164.40 0.09075158
1164.50 0.090726
1164.60 0.09070042
1164.70 0.09067485
1164.80 0.09064929
1164.90 0.09062373
1165.00 0.09059819
1165.10 0.09057264
1165.20 0.09054711
1165.30 0.09052158
1165.40 0.09049606
1165.50 0.09047056
1165.60 0.09044505
1165.70 0.09041956
1165.80 0.09039407
1165.90 0.09036858
1166.00 0.09034311
1166.10 0.09031764
1166.20 0.09029218
1166.30 0.09026673
1166.40 0.09024129
1166.50 0.09021586
1166.60 0.09019042
1166.70 0.090165
1166.80 0.09013959
1166.90 0.09011418
1167.00 0.09008878
1167.10 0.09006339
1167.20 0.090038
1167.30 0.09001262
1167.40 0.08998725
1167.50 0.08996189
1167.60 0.08993653
1167.70 0.08991118
1167.80 0.08988585
1167.90 0.08986051
1168.00 0.08983455
1168.10 0.08980851
1168.20 0.0897825
1168.30 0.08975649
1168.40 0.08973049
1168.50 0.08970448
1168.60 0.0896785
1168.70 0.08965252
1168.80 0.08962655
1168.90 0.08960057
1169.00 0.08957462
1169.10 0.08954867
1169.20 0.08952272
1169.30 0.08949679
1169.40 0.08947086
1169.50 0.08944493
1169.60 0.08941902
1169.70 0.08939312
1169.80 0.08936722
1169.90 0.08934133
1170.00 0.08931545
1170.10 0.08928957
1170.20 0.0892637
1170.30 0.08923785
1170.40 0.08921199
1170.50 0.08918615
1170.60 0.08916031
1170.70 0.08913447
1170.80 0.08910866
1170.90 0.08908283
1171.00 0.08905703
1171.10 0.08903123
1171.20 0.08900544
1171.30 0.08897965
1171.40 0.08895387
1171.50 0.0889281
1171.60 0.08890234
1171.70 0.08887659
1171.80 0.08885084
1171.90 0.0888251
1172.00 0.08879937
1172.10 0.08877364
1172.20 0.08874792
1172.30 0.08872221
1172.40 0.08869651
1172.50 0.08867081
1172.60 0.08864513
1172.70 0.08861944
1172.80 0.08859377
1172.90 0.0885681
1173.00 0.08854245
1173.10 0.08851679
1173.20 0.08849116
1173.30 0.08846552
1173.40 0.08843989
1173.50 0.08841427
1173.60 0.08838866
1173.70 0.08836305
1173.80 0.08833808
1173.90 0.08831329
1174.00 0.0882885
1174.10 0.08826373
1174.20 0.08823896
1174.30 0.08821419
1174.40 0.08818944
1174.50 0.08816469
1174.60 0.08813994
1174.70 0.0881152
1174.80 0.08809048
1174.90 0.08806576
1175.00 0.08804104
1175.10 0.08801634
1175.20 0.08799164
1175.30 0.08796694
1175.40 0.08794226
1175.50 0.08791758
1175.60 0.08789291
1175.70 0.08786825
1175.80 0.08784359
1175.90 0.08781893
1176.00 0.08779429
1176.10 0.08776966
1176.20 0.08774503
1176.30 0.08772041
1176.40 0.08769579
1176.50 0.08767119
1176.60 0.08764659
1176.70 0.087622
1176.80 0.08759741
1176.90 0.08757283
1177.00 0.08754826
1177.10 0.08752369
1177.20 0.08749914
1177.30 0.08747458
1177.40 0.08745004
1177.50 0.08742551
1177.60 0.08740098
1177.70 0.08737645
1177.80 0.08735194
1177.90 0.08732743
1178.00 0.08730292
1178.10 0.08727843
1178.20 0.08725395
1178.30 0.08722947
1178.40 0.08720499
1178.50 0.08718053
1178.60 0.08715607
1178.70 0.08713162
1178.80 0.08710718
1178.90 0.08708274
1179.00 0.0870583
1179.10 0.08703388
1179.20 0.08700947
1179.30 0.08698505
1179.40 0.08696066
1179.50 0.08693626
1179.60 0.08691179
1179.70 0.08688672
1179.80 0.08686166
1179.90 0.08683661
1180.00 0.08681157
1180.10 0.08678653
1180.20 0.08676149
1180.30 0.08673647
1180.40 0.08671145
1180.50 0.08668644
1180.60 0.08666143
1180.70 0.08663644
1180.80 0.08661145
1180.90 0.08658647
1181.00 0.08656149
1181.10 0.08653652
1181.20 0.08651156
1181.30 0.08648661
1181.40 0.08646166
1181.50 0.08643672
1181.60 0.08641179
1181.70 0.08638687
1181.80 0.08636195
1181.90 0.08633704
1182.00 0.08631214
1182.10 0.08628724
1182.20 0.08626236
1182.30 0.08623748
1182.40 0.0862126
1182.50 0.08618774
1182.60 0.08616288
1182.70 0.08613802
1182.80 0.08611318
1182.90 0.08608834
1183.00 0.08606351
1183.10 0.08603869
1183.20 0.08601387
1183.30 0.08598906
1183.40 0.08596425
1183.50 0.08593946
1183.60 0.08591467
1183.70 0.08588989
1183.80 0.08586512
1183.90 0.08584035
1184.00 0.0858156
1184.10 0.08579085
1184.20 0.0857661
1184.30 0.08574136
1184.40 0.08571663
1184.50 0.0856919
1184.60 0.08566719
1184.70 0.08564248
1184.80 0.08561778
1184.90 0.08559309
1185.00 0.08556839
1185.10 0.08554371
1185.20 0.08551904
1185.30 0.08549437
1185.40 0.08546972
1185.50 0.08544538
1185.60 0.08542152
1185.70 0.08539765
1185.80 0.0853738
1185.90 0.08534994
1186.00 0.08532611
1186.10 0.08530227
1186.20 0.08527844
1186.30 0.08525462
1186.40 0.08523081
1186.50 0.085207
1186.60 0.08518319
1186.70 0.08515939
1186.80 0.08513561
1186.90 0.08511183
1187.00 0.08508805
1187.10 0.08506428
1187.20 0.08504053
1187.30 0.08501678
1187.40 0.08499303
1187.50 0.08496928
1187.60 0.08494555
1187.70 0.08492183
1187.80 0.08489811
1187.90 0.08487439
1188.00 0.08485069
1188.10 0.08482698
1188.20 0.08480329
1188.30 0.08477961
1188.40 0.08475593
1188.50 0.08473226
1188.60 0.08470859
1188.70 0.08468493
1188.80 0.08466128
1188.90 0.08463763
1189.00 0.08461399
1189.10 0.08459037
1189.20 0.08456674
1189.30 0.08454312
1189.40 0.08451951
1189.50 0.0844959
1189.60 0.0844723
1189.70 0.08444871
1189.80 0.08442512
1189.90 0.08440155
1190.00 0.08437797
1190.10 0.08435442
1190.20 0.08433086
1190.30 0.08430731
1190.40 0.08428376
1190.50 0.08426022
1190.60 0.08423669
1190.70 0.08421317
1190.80 0.08418965
1190.90 0.08416614
1191.00 0.08414263
1191.10 0.08411914
1191.20 0.08409565
1191.30 0.08407216
1191.40 0.08404858
1191.50 0.08402445
1191.60 0.08400031
1191.70 0.08397619
1191.80 0.08395207
1191.90 0.08392795
1192.00 0.08390385
1192.10 0.08387975
1192.20 0.08385567
1192.30 0.08383158
1192.40 0.08380751
1192.50 0.08378343
1192.60 0.08375936
1192.70 0.08373531
1192.80 0.08371126
1192.90 0.08368722
1193.00 0.08366318
1193.10 0.08363915
1193.20 0.08361513
1193.30 0.08359112
1193.40 0.08356711
1193.50 0.08354311
1193.60 0.08351911
1193.70 0.08349513
1193.80 0.08347114
1193.90 0.08344717
1194.00 0.08342321
1194.10 0.08339924
1194.20 0.08337529
1194.30 0.08335135
1194.40 0.0833274
1194.50 0.08330347
1194.60 0.08327955
1194.70 0.08325562
1194.80 0.08323171
1194.90 0.08320781
1195.00 0.08318391
1195.10 0.08316001
1195.20 0.08313613
1195.30 0.08311225
1195.40 0.08308838
1195.50 0.08306451
1195.60 0.08304066
1195.70 0.08301681
1195.80 0.08299296
1195.90 0.08296912
1196.00 0.0829453
1196.10 0.08292147
1196.20 0.08289765
1196.30 0.08287384
1196.40 0.08285005
1196.50 0.08282625
1196.60 0.08280246
1196.70 0.08277867
1196.80 0.0827549
1196.90 0.08273113
1197.00 0.08270737
1197.10 0.08268361
1197.20 0.08265986
1197.30 0.08263612
1197.40 0.08261305
1197.50 0.08259008
1197.60 0.08256711
1197.70 0.08254414
1197.80 0.08252119
1197.90 0.08249825
1198.00 0.0824753
1198.10 0.08245237
1198.20 0.08242945
1198.30 0.08240652
1198.40 0.08238361
1198.50 0.08236069
1198.60 0.08233779
1198.70 0.0823149
1198.80 0.08229201
1198.90 0.08226913
1199.00 0.08224625
1199.10 0.08222338
1199.20 0.08220052
1199.30 0.08217766
1199.40 0.08215481
1199.50 0.08213196
1199.60 0.08210913
1199.70 0.0820863
1199.80 0.08206347
1199.90 0.08204066
1200.00 0.08201784
