# Version 2.1 - nm, norm@500 to 1, cut digits, bergeron_He_10000_80.dat_10000
# Wavelength(nm)  Flambda(ergs/cm^s/s/nm)
300.00 1.994925
300.10 1.994518
300.20 1.994098
300.30 1.993696
300.40 1.993426
300.50 1.993156
300.60 1.992885
300.70 1.992615
300.80 1.992344
300.90 1.992073
301.00 1.991802
301.10 1.991531
301.20 1.99126
301.30 1.990989
301.40 1.990718
301.50 1.990447
301.60 1.990175
301.70 1.989904
301.80 1.989633
301.90 1.989361
302.00 1.989089
302.10 1.98875
302.20 1.988404
302.30 1.988057
302.40 1.987711
302.50 1.987364
302.60 1.987018
302.70 1.986671
302.80 1.986325
302.90 1.985978
303.00 1.985632
303.10 1.985286
303.20 1.984939
303.30 1.984598
303.40 1.984299
303.50 1.984
303.60 1.983701
303.70 1.983402
303.80 1.983103
303.90 1.982803
304.00 1.982504
304.10 1.982205
304.20 1.981906
304.30 1.981606
304.40 1.981307
304.50 1.981008
304.60 1.980686
304.70 1.980363
304.80 1.980039
304.90 1.979715
305.00 1.979392
305.10 1.979068
305.20 1.978744
305.30 1.97842
305.40 1.978097
305.50 1.977773
305.60 1.977449
305.70 1.977126
305.80 1.976802
305.90 1.976478
306.00 1.976154
306.10 1.975831
306.20 1.975507
306.30 1.975183
306.40 1.974837
306.50 1.974483
306.60 1.97413
306.70 1.973777
306.80 1.973424
306.90 1.97307
307.00 1.972717
307.10 1.972364
307.20 1.972011
307.30 1.971658
307.40 1.971305
307.50 1.970952
307.60 1.970599
307.70 1.970246
307.80 1.969894
307.90 1.969541
308.00 1.969188
308.10 1.968835
308.20 1.968483
308.30 1.96813
308.40 1.967778
308.50 1.967425
308.60 1.967073
308.70 1.96672
308.80 1.966374
308.90 1.966043
309.00 1.965748
309.10 1.965452
309.20 1.965157
309.30 1.964861
309.40 1.964549
309.50 1.964137
309.60 1.963725
309.70 1.963313
309.80 1.962902
309.90 1.96249
310.00 1.962079
310.10 1.961667
310.20 1.961256
310.30 1.960845
310.40 1.960488
310.50 1.960191
310.60 1.959894
310.70 1.959596
310.80 1.959299
310.90 1.959001
311.00 1.958681
311.10 1.958362
311.20 1.958042
311.30 1.957696
311.40 1.957277
311.50 1.956859
311.60 1.95644
311.70 1.956022
311.80 1.955604
311.90 1.955186
312.00 1.954768
312.10 1.95435
312.20 1.954056
312.30 1.95387
312.40 1.953587
312.50 1.953073
312.60 1.952603
312.70 1.952133
312.80 1.951663
312.90 1.951281
313.00 1.950994
313.10 1.950707
313.20 1.950419
313.30 1.95009
313.40 1.94964
313.50 1.94919
313.60 1.948741
313.70 1.948292
313.80 1.947843
313.90 1.947394
314.00 1.946946
314.10 1.946596
314.20 1.946247
314.30 1.945898
314.40 1.945549
314.50 1.9452
314.60 1.944852
314.70 1.944503
314.80 1.944114
314.90 1.943631
315.00 1.943169
315.10 1.942792
315.20 1.942415
315.30 1.942038
315.40 1.941661
315.50 1.941284
315.60 1.940907
315.70 1.94053
315.80 1.940154
315.90 1.939777
316.00 1.939401
316.10 1.939025
316.20 1.938648
316.30 1.937989
316.40 1.937613
316.50 1.937237
316.60 1.937144
316.70 1.936486
316.80 1.935828
316.90 1.935453
317.00 1.935078
317.10 1.934703
317.20 1.934328
317.30 1.934079
317.40 1.933784
317.50 1.933358
317.60 1.932932
317.70 1.932506
317.80 1.93208
317.90 1.931602
318.00 1.930989
318.10 1.930615
318.20 1.930241
318.30 1.929868
318.40 1.929494
318.50 1.92912
318.60 1.928529
318.70 1.928435
318.80 1.927783
318.90 1.927214
319.00 1.927181
319.10 1.92653
319.20 1.925964
319.30 1.92564
319.40 1.925316
319.50 1.924992
319.60 1.924436
319.70 1.923966
319.80 1.923495
319.90 1.923025
320.00 1.922603
320.10 1.922231
320.20 1.922014
320.30 1.921367
320.40 1.921271
320.50 1.920624
320.60 1.920374
320.70 1.920003
320.80 1.919566
320.90 1.919058
321.00 1.91855
321.10 1.918042
321.20 1.917951
321.30 1.917517
321.40 1.917084
321.50 1.91665
321.60 1.916216
321.70 1.915783
321.80 1.915341
321.90 1.91489
322.00 1.91409
322.10 1.913649
322.20 1.913208
322.30 1.912767
322.40 1.912326
322.50 1.911886
322.60 1.911446
322.70 1.911006
322.80 1.910941
322.90 1.910481
323.00 1.910022
323.10 1.909563
323.20 1.909104
323.30 1.908645
323.40 1.908187
323.50 1.907728
323.60 1.90727
323.70 1.906812
323.80 1.906355
323.90 1.905897
324.00 1.905442
324.10 1.904988
324.20 1.904534
324.30 1.904072
324.40 1.903605
324.50 1.903158
324.60 1.90271
324.70 1.902263
324.80 1.901816
324.90 1.901369
325.00 1.900922
325.10 1.900475
325.20 1.900037
325.30 1.899615
325.40 1.899193
325.50 1.89874
325.60 1.898246
325.70 1.897754
325.80 1.897261
325.90 1.89681
326.00 1.896405
326.10 1.896
326.20 1.895594
326.30 1.895212
326.40 1.894895
326.50 1.89443
326.60 1.893965
326.70 1.893501
326.80 1.893036
326.90 1.892572
327.00 1.892108
327.10 1.891644
327.20 1.891181
327.30 1.890717
327.40 1.890254
327.50 1.889791
327.60 1.889329
327.70 1.888866
327.80 1.888404
327.90 1.887856
328.00 1.887293
328.10 1.886823
328.20 1.886354
328.30 1.885885
328.40 1.885416
328.50 1.884996
328.60 1.884588
328.70 1.88418
328.80 1.883753
328.90 1.883273
329.00 1.882794
329.10 1.882314
329.20 1.881835
329.30 1.881355
329.40 1.880877
329.50 1.880398
329.60 1.879919
329.70 1.879441
329.80 1.878963
329.90 1.878486
330.00 1.878006
330.10 1.877523
330.20 1.87704
330.30 1.876558
330.40 1.876078
330.50 1.875602
330.60 1.875125
330.70 1.874649
330.80 1.874173
330.90 1.873697
331.00 1.873221
331.10 1.872746
331.20 1.872271
331.30 1.871796
331.40 1.871321
331.50 1.870832
331.60 1.870325
331.70 1.869818
331.80 1.869337
331.90 1.868858
332.00 1.868379
332.10 1.867901
332.20 1.867422
332.30 1.866944
332.40 1.866466
332.50 1.865989
332.60 1.865511
332.70 1.865034
332.80 1.864557
332.90 1.864081
333.00 1.863604
333.10 1.863137
333.20 1.862683
333.30 1.862228
333.40 1.861774
333.50 1.86132
333.60 1.860866
333.70 1.860412
333.80 1.859959
333.90 1.859506
334.00 1.859053
334.10 1.858569
334.20 1.858049
334.30 1.857529
334.40 1.857009
334.50 1.85649
334.60 1.855971
334.70 1.855405
334.80 1.8549
334.90 1.854564
335.00 1.854228
335.10 1.85351
335.20 1.852909
335.30 1.852585
335.40 1.851984
335.50 1.851446
335.60 1.851098
335.70 1.850523
335.80 1.850175
335.90 1.84977
336.00 1.849296
336.10 1.848823
336.20 1.84835
336.30 1.847858
336.40 1.847344
336.50 1.84683
336.60 1.846316
336.70 1.845803
336.80 1.84529
336.90 1.844793
337.00 1.844315
337.10 1.843838
337.20 1.843362
337.30 1.842872
337.40 1.842365
337.50 1.841857
337.60 1.84135
337.70 1.840843
337.80 1.840337
337.90 1.839828
338.00 1.839316
338.10 1.838805
338.20 1.838293
338.30 1.837782
338.40 1.837266
338.50 1.836738
338.60 1.83621
338.70 1.835682
338.80 1.835154
338.90 1.834627
339.00 1.8341
339.10 1.833573
339.20 1.833047
339.30 1.832602
339.40 1.832275
339.50 1.831864
339.60 1.831351
339.70 1.830838
339.80 1.830325
339.90 1.829812
340.00 1.829299
340.10 1.828787
340.20 1.828276
340.30 1.827764
340.40 1.827253
340.50 1.826742
340.60 1.826231
340.70 1.825721
340.80 1.825185
340.90 1.824611
341.00 1.824062
341.10 1.82354
341.20 1.823019
341.30 1.822498
341.40 1.821977
341.50 1.821457
341.60 1.820937
341.70 1.820417
341.80 1.819909
341.90 1.819415
342.00 1.818921
342.10 1.818427
342.20 1.818062
342.30 1.81752
342.40 1.816896
342.50 1.816403
342.60 1.81591
342.70 1.815417
342.80 1.814924
342.90 1.814431
343.00 1.813899
343.10 1.813319
343.20 1.812738
343.30 1.812158
343.40 1.811614
343.50 1.811119
343.60 1.810625
343.70 1.810131
343.80 1.809637
343.90 1.809144
344.00 1.808667
344.10 1.808214
344.20 1.807762
344.30 1.807309
344.40 1.806808
344.50 1.806237
344.60 1.805482
344.70 1.80515
344.80 1.804341
344.90 1.804009
345.00 1.803385
345.10 1.802816
345.20 1.802315
345.30 1.801914
345.40 1.801512
345.50 1.801028
345.60 1.800449
345.70 1.799882
345.80 1.799315
345.90 1.798748
346.00 1.798182
346.10 1.797616
346.20 1.79707
346.30 1.796552
346.40 1.796034
346.50 1.795517
346.60 1.795
346.70 1.794483
346.80 1.793966
346.90 1.79345
347.00 1.792934
347.10 1.792418
347.20 1.791902
347.30 1.791383
347.40 1.790864
347.50 1.790346
347.60 1.789829
347.70 1.789311
347.80 1.788794
347.90 1.788277
348.00 1.78776
348.10 1.787244
348.20 1.786728
348.30 1.786212
348.40 1.785697
348.50 1.785182
348.60 1.784667
348.70 1.784028
348.80 1.783412
348.90 1.782886
349.00 1.782361
349.10 1.781836
349.20 1.781311
349.30 1.780787
349.40 1.780263
349.50 1.779739
349.60 1.779215
349.70 1.778692
349.80 1.778169
349.90 1.777647
350.00 1.777124
350.10 1.776602
350.20 1.776081
350.30 1.775546
350.40 1.774992
350.50 1.774438
350.60 1.773885
350.70 1.773332
350.80 1.77278
350.90 1.772227
351.00 1.771676
351.10 1.771124
351.20 1.770573
351.30 1.770022
351.40 1.769484
351.50 1.768969
351.60 1.768455
351.70 1.76794
351.80 1.767426
351.90 1.766913
352.00 1.766399
352.10 1.765886
352.20 1.765484
352.30 1.765021
352.40 1.764452
352.50 1.763883
352.60 1.763314
352.70 1.762746
352.80 1.762178
352.90 1.761611
353.00 1.761044
353.10 1.760477
353.20 1.75991
353.30 1.759344
353.40 1.758779
353.50 1.758278
353.60 1.757794
353.70 1.75731
353.80 1.756827
353.90 1.756324
354.00 1.755786
354.10 1.755249
354.20 1.754712
354.30 1.754176
354.40 1.75364
354.50 1.753104
354.60 1.752568
354.70 1.752033
354.80 1.75148
354.90 1.750901
355.00 1.750323
355.10 1.749745
355.20 1.749167
355.30 1.748599
355.40 1.748031
355.50 1.747464
355.60 1.746897
355.70 1.746442
355.80 1.746037
355.90 1.745424
356.00 1.74479
356.10 1.744244
356.20 1.743698
356.30 1.743152
356.40 1.742606
356.50 1.742061
356.60 1.741516
356.70 1.740971
356.80 1.740427
356.90 1.739883
357.00 1.73934
357.10 1.738796
357.20 1.738253
357.30 1.737711
357.40 1.737156
357.50 1.736581
357.60 1.736005
357.70 1.73543
357.80 1.734862
357.90 1.734295
358.00 1.733745
358.10 1.733201
358.20 1.732656
358.30 1.732112
358.40 1.731568
358.50 1.731024
358.60 1.730481
358.70 1.729938
358.80 1.729395
358.90 1.728853
359.00 1.728372
359.10 1.728001
359.20 1.727602
359.30 1.727017
359.40 1.726433
359.50 1.725798
359.60 1.725152
359.70 1.724505
359.80 1.724044
359.90 1.723583
360.00 1.72309
360.10 1.72254
360.20 1.721991
360.30 1.721441
360.40 1.720892
360.50 1.720344
360.60 1.719551
360.70 1.719033
360.80 1.718515
360.90 1.717998
361.00 1.717604
361.10 1.717049
361.20 1.716292
361.30 1.715776
361.40 1.715239
361.50 1.714745
361.60 1.714308
361.70 1.713577
361.80 1.712951
361.90 1.712511
362.00 1.712072
362.10 1.711468
362.20 1.710851
362.30 1.710286
362.40 1.70972
362.50 1.709155
362.60 1.708591
362.70 1.707964
362.80 1.707644
362.90 1.707131
363.00 1.706619
363.10 1.706071
363.20 1.705524
363.30 1.704664
363.40 1.704262
363.50 1.703646
363.60 1.703138
363.70 1.702439
363.80 1.702122
363.90 1.701492
364.00 1.700863
364.10 1.700234
364.20 1.699606
364.30 1.699113
364.40 1.698655
364.50 1.698154
364.60 1.697647
364.70 1.697141
364.80 1.696635
364.90 1.695918
365.00 1.695201
365.10 1.694698
365.20 1.694195
365.30 1.693692
365.40 1.693189
365.50 1.692687
365.60 1.692185
365.70 1.691452
365.80 1.69072
365.90 1.690211
366.00 1.689757
366.10 1.68925
366.20 1.688742
366.30 1.688236
366.40 1.687729
366.50 1.686837
366.60 1.686339
366.70 1.685738
366.80 1.685138
366.90 1.68456
367.00 1.68402
367.10 1.683481
367.20 1.682942
367.30 1.682404
367.40 1.681865
367.50 1.681399
367.60 1.68095
367.70 1.680366
367.80 1.679784
367.90 1.679201
368.00 1.678553
368.10 1.678054
368.20 1.677473
368.30 1.676891
368.40 1.676309
368.50 1.675727
368.60 1.675146
368.70 1.674565
368.80 1.673985
368.90 1.673554
369.00 1.67298
369.10 1.672303
369.20 1.671816
369.30 1.671326
369.40 1.670836
369.50 1.670347
369.60 1.66965
369.70 1.668953
369.80 1.668385
369.90 1.667819
370.00 1.667253
370.10 1.66699
370.20 1.666308
370.30 1.665615
370.40 1.66513
370.50 1.664644
370.60 1.664159
370.70 1.663673
370.80 1.662981
370.90 1.662289
371.00 1.661805
371.10 1.661323
371.20 1.660633
371.30 1.659943
371.40 1.659572
371.50 1.658984
371.60 1.658397
371.70 1.657811
371.80 1.657224
371.90 1.656638
372.00 1.656277
372.10 1.655679
372.20 1.655131
372.30 1.654582
372.40 1.654034
372.50 1.653487
372.60 1.652939
372.70 1.652392
372.80 1.651709
372.90 1.651026
373.00 1.650548
373.10 1.650072
373.20 1.649391
373.30 1.648711
373.40 1.648235
373.50 1.647758
373.60 1.647282
373.70 1.646401
373.80 1.646014
373.90 1.64545
374.00 1.644874
374.10 1.644299
374.20 1.643724
374.30 1.643149
374.40 1.642524
374.50 1.642192
374.60 1.641626
374.70 1.641053
374.80 1.640481
374.90 1.639909
375.00 1.639303
375.10 1.638698
375.20 1.638093
375.30 1.637565
375.40 1.637037
375.50 1.636509
375.60 1.635982
375.70 1.635456
375.80 1.634929
375.90 1.634403
376.00 1.633534
376.10 1.633011
376.20 1.632492
376.30 1.631973
376.40 1.631454
376.50 1.630907
376.60 1.630317
376.70 1.629727
376.80 1.629139
376.90 1.628553
377.00 1.627968
377.10 1.627384
377.20 1.626819
377.30 1.626329
377.40 1.625839
377.50 1.625349
377.60 1.624748
377.70 1.624146
377.80 1.623546
377.90 1.622945
378.00 1.622242
378.10 1.621702
378.20 1.621165
378.30 1.620629
378.40 1.620093
378.50 1.619557
378.60 1.619022
378.70 1.618487
378.80 1.617953
378.90 1.617409
379.00 1.616848
379.10 1.616153
379.20 1.615458
379.30 1.614876
379.40 1.614406
379.50 1.613936
379.60 1.613446
379.70 1.612907
379.80 1.612297
379.90 1.611687
380.00 1.611077
380.10 1.610468
380.20 1.60986
380.30 1.609252
380.40 1.608644
380.50 1.608036
380.60 1.607692
380.70 1.607114
380.80 1.606536
380.90 1.605959
381.00 1.605382
381.10 1.604784
381.20 1.604261
381.30 1.60371
381.40 1.603255
381.50 1.602614
381.60 1.602025
381.70 1.601444
381.80 1.600994
381.90 1.600155
382.00 1.599706
382.10 1.599257
382.20 1.598575
382.30 1.598127
382.40 1.597629
382.50 1.597058
382.60 1.596488
382.70 1.595794
382.80 1.595095
382.90 1.594532
383.00 1.59397
383.10 1.593408
383.20 1.592834
383.30 1.592216
383.40 1.591624
383.50 1.591069
383.60 1.590647
383.70 1.590072
383.80 1.589497
383.90 1.588922
384.00 1.588348
384.10 1.587774
384.20 1.5872
384.30 1.586627
384.40 1.586062
384.50 1.585505
384.60 1.584949
384.70 1.584392
384.80 1.583874
384.90 1.583398
385.00 1.582739
385.10 1.582092
385.20 1.58173
385.30 1.581102
385.40 1.580512
385.50 1.579959
385.60 1.579406
385.70 1.578854
385.80 1.578292
385.90 1.577697
386.00 1.577125
386.10 1.57658
386.20 1.576057
386.30 1.575535
386.40 1.574866
386.50 1.574207
386.60 1.573616
386.70 1.573181
386.80 1.572462
386.90 1.571933
387.00 1.5715
387.10 1.570697
387.20 1.570254
387.30 1.569821
387.40 1.569109
387.50 1.568579
387.60 1.568186
387.70 1.567566
387.80 1.566946
387.90 1.566326
388.00 1.56576
388.10 1.565237
388.20 1.56455
388.30 1.563983
388.40 1.563416
388.50 1.562882
388.60 1.562337
388.70 1.561873
388.80 1.561246
388.90 1.560677
389.00 1.560069
389.10 1.559601
389.20 1.55902
389.30 1.558354
389.40 1.557937
389.50 1.557366
389.60 1.556658
389.70 1.556208
389.80 1.5556
389.90 1.554992
390.00 1.554385
390.10 1.553778
390.20 1.553172
390.30 1.552617
390.40 1.552121
390.50 1.551625
390.60 1.55113
390.70 1.550635
390.80 1.550095
390.90 1.549512
391.00 1.548824
391.10 1.548212
391.20 1.547668
391.30 1.547229
391.40 1.546623
391.50 1.546018
391.60 1.545413
391.70 1.544809
391.80 1.544205
391.90 1.543677
392.00 1.54316
392.10 1.542533
392.20 1.541947
392.30 1.541599
392.40 1.541056
392.50 1.540271
392.60 1.539854
392.70 1.539134
392.80 1.538653
392.90 1.537938
393.00 1.537351
393.10 1.536797
393.20 1.536274
393.30 1.535676
393.40 1.535153
393.50 1.534648
393.60 1.534092
393.70 1.533454
393.80 1.533057
393.90 1.532462
394.00 1.53185
394.10 1.531247
394.20 1.53084
394.30 1.530249
394.40 1.529503
394.50 1.529062
394.60 1.52849
394.70 1.527911
394.80 1.527304
394.90 1.526704
395.00 1.526282
395.10 1.525764
395.20 1.525195
395.30 1.524542
395.40 1.523889
395.50 1.523365
395.60 1.522889
395.70 1.522396
395.80 1.521854
395.90 1.521313
396.00 1.520751
396.10 1.520032
396.20 1.519446
396.30 1.518811
396.40 1.518405
396.50 1.517639
396.60 1.517234
396.70 1.516596
396.80 1.516065
396.90 1.515661
397.00 1.514897
397.10 1.514434
397.20 1.513812
397.30 1.513359
397.40 1.51271
397.50 1.512062
397.60 1.511427
397.70 1.510921
397.80 1.510415
397.90 1.50991
398.00 1.509407
398.10 1.508904
398.20 1.508351
398.30 1.50774
398.40 1.507133
398.50 1.506651
398.60 1.50597
398.70 1.505331
398.80 1.504721
398.90 1.504154
399.00 1.503663
399.10 1.50328
399.20 1.50269
399.30 1.502101
399.40 1.501512
399.50 1.500923
399.60 1.500381
399.70 1.499857
399.80 1.499333
399.90 1.498809
400.00 1.498279
400.10 1.49753
400.20 1.49703
400.30 1.4965
400.40 1.495892
400.50 1.495247
400.60 1.494629
400.70 1.49406
400.80 1.493715
400.90 1.493027
401.00 1.492578
401.10 1.491833
401.20 1.491366
401.30 1.490962
401.40 1.490403
401.50 1.48979
401.60 1.489183
401.70 1.488712
401.80 1.488044
401.90 1.487487
402.00 1.486914
402.10 1.486525
402.20 1.485786
402.30 1.485249
402.40 1.484659
402.50 1.484271
402.60 1.483534
402.70 1.483147
402.80 1.48241
402.90 1.481814
403.00 1.481253
403.10 1.480902
403.20 1.480176
403.30 1.47971
403.40 1.479048
403.50 1.478478
403.60 1.47796
403.70 1.477546
403.80 1.476821
403.90 1.476287
404.00 1.4757
404.10 1.475317
404.20 1.47476
404.30 1.474204
404.40 1.473475
404.50 1.47292
404.60 1.472365
404.70 1.471983
404.80 1.471266
404.90 1.470875
405.00 1.470149
405.10 1.46962
405.20 1.469141
405.30 1.468663
405.40 1.468111
405.50 1.467559
405.60 1.467008
405.70 1.466457
405.80 1.465906
405.90 1.465356
406.00 1.464772
406.10 1.464189
406.20 1.463607
406.30 1.463025
406.40 1.462439
406.50 1.461806
406.60 1.461343
406.70 1.460731
406.80 1.460147
406.90 1.459536
407.00 1.45899
407.10 1.458444
407.20 1.457899
407.30 1.457354
407.40 1.456809
407.50 1.456265
407.60 1.455721
407.70 1.455177
407.80 1.454634
407.90 1.454092
408.00 1.453565
408.10 1.453002
408.20 1.452378
408.30 1.451778
408.40 1.451177
408.50 1.450836
408.60 1.450244
408.70 1.449652
408.80 1.44909
408.90 1.448708
409.00 1.44813
409.10 1.447552
409.20 1.446975
409.30 1.446397
409.40 1.44582
409.50 1.445234
409.60 1.444647
409.70 1.444069
409.80 1.44352
409.90 1.442976
410.00 1.442599
410.10 1.441896
410.20 1.441298
410.30 1.440727
410.40 1.440178
410.50 1.439698
410.60 1.439218
410.70 1.438721
410.80 1.438157
410.90 1.437592
411.00 1.436999
411.10 1.436395
411.20 1.435791
411.30 1.435226
411.40 1.43481
411.50 1.434231
411.60 1.433652
411.70 1.433084
411.80 1.432555
411.90 1.431993
412.00 1.431298
412.10 1.430937
412.20 1.430243
412.30 1.429882
412.40 1.429189
412.50 1.428544
412.60 1.428089
412.70 1.427548
412.80 1.426986
412.90 1.426407
413.00 1.426068
413.10 1.425509
413.20 1.424951
413.30 1.424393
413.40 1.423835
413.50 1.423252
413.60 1.422604
413.70 1.422082
413.80 1.42156
413.90 1.421038
414.00 1.420517
414.10 1.419996
414.20 1.419436
414.30 1.418751
414.40 1.41833
414.50 1.417712
414.60 1.417068
414.70 1.416549
414.80 1.416031
414.90 1.415513
415.00 1.414995
415.10 1.414478
415.20 1.413946
415.30 1.413368
415.40 1.41279
415.50 1.412213
415.60 1.411651
415.70 1.411089
415.80 1.410526
415.90 1.409955
416.00 1.409385
416.10 1.408825
416.20 1.408305
416.30 1.407785
416.40 1.407266
416.50 1.406747
416.60 1.406235
416.70 1.405719
416.80 1.405044
416.90 1.404545
417.00 1.404023
417.10 1.403354
417.20 1.402844
417.30 1.402333
417.40 1.401776
417.50 1.40122
417.60 1.400696
417.70 1.400298
417.80 1.399736
417.90 1.399174
418.00 1.398613
418.10 1.398052
418.20 1.397492
418.30 1.396928
418.40 1.396294
418.50 1.395768
418.60 1.395241
418.70 1.394715
418.80 1.39419
418.90 1.393664
419.00 1.393139
419.10 1.392615
419.20 1.39209
419.30 1.391566
419.40 1.391016
419.50 1.390467
419.60 1.389917
419.70 1.389363
419.80 1.38881
419.90 1.388261
420.00 1.387726
420.10 1.387191
420.20 1.386657
420.30 1.386123
420.40 1.385589
420.50 1.385055
420.60 1.384522
420.70 1.38399
420.80 1.383457
420.90 1.382925
421.00 1.382383
421.10 1.381841
421.20 1.381294
421.30 1.38073
421.40 1.380166
421.50 1.379602
421.60 1.379038
421.70 1.378475
421.80 1.377913
421.90 1.377366
422.00 1.376869
422.10 1.376362
422.20 1.37581
422.30 1.375259
422.40 1.374708
422.50 1.37417
422.60 1.373632
422.70 1.373094
422.80 1.372557
422.90 1.37202
423.00 1.371483
423.10 1.370947
423.20 1.370411
423.30 1.369875
423.40 1.36934
423.50 1.368805
423.60 1.368271
423.70 1.367737
423.80 1.367203
423.90 1.366669
424.00 1.366136
424.10 1.365604
424.20 1.365071
424.30 1.364539
424.40 1.363984
424.50 1.363436
424.60 1.362889
424.70 1.362343
424.80 1.361797
424.90 1.361251
425.00 1.360705
425.10 1.36016
425.20 1.359616
425.30 1.359071
425.40 1.358528
425.50 1.357993
425.60 1.357459
425.70 1.356925
425.80 1.356391
425.90 1.355858
426.00 1.355324
426.10 1.354792
426.20 1.354259
426.30 1.353727
426.40 1.353196
426.50 1.352664
426.60 1.352133
426.70 1.351603
426.80 1.351072
426.90 1.350542
427.00 1.350008
427.10 1.349474
427.20 1.348941
427.30 1.348408
427.40 1.347875
427.50 1.347342
427.60 1.34681
427.70 1.346279
427.80 1.345747
427.90 1.345216
428.00 1.344686
428.10 1.344155
428.20 1.343625
428.30 1.343096
428.40 1.342567
428.50 1.342038
428.60 1.341509
428.70 1.340981
428.80 1.340452
428.90 1.339914
429.00 1.339375
429.10 1.338837
429.20 1.338299
429.30 1.337762
429.40 1.337225
429.50 1.336688
429.60 1.336152
429.70 1.335616
429.80 1.335081
429.90 1.334546
430.00 1.334011
430.10 1.333476
430.20 1.332942
430.30 1.332408
430.40 1.331875
430.50 1.331342
430.60 1.330809
430.70 1.330277
430.80 1.329745
430.90 1.329213
431.00 1.328682
431.10 1.328151
431.20 1.32762
431.30 1.32709
431.40 1.326566
431.50 1.326043
431.60 1.32552
431.70 1.324997
431.80 1.324474
431.90 1.323952
432.00 1.32343
432.10 1.322909
432.20 1.322388
432.30 1.321867
432.40 1.321347
432.50 1.320827
432.60 1.320307
432.70 1.319787
432.80 1.319268
432.90 1.31875
433.00 1.318231
433.10 1.317713
433.20 1.317195
433.30 1.316676
433.40 1.316134
433.50 1.315592
433.60 1.315051
433.70 1.31451
433.80 1.313939
433.90 1.313334
434.00 1.312794
434.10 1.312295
434.20 1.311796
434.30 1.311297
434.40 1.310799
434.50 1.310301
434.60 1.309803
434.70 1.309306
434.80 1.308806
434.90 1.308266
435.00 1.307726
435.10 1.307186
435.20 1.306647
435.30 1.306108
435.40 1.305569
435.50 1.305031
435.60 1.304493
435.70 1.303956
435.80 1.303418
435.90 1.302882
436.00 1.302345
436.10 1.301809
436.20 1.301274
436.30 1.300808
436.40 1.300415
436.50 1.299859
436.60 1.299303
436.70 1.298747
436.80 1.298192
436.90 1.297637
437.00 1.297082
437.10 1.296528
437.20 1.296017
437.30 1.295545
437.40 1.295069
437.50 1.294526
437.60 1.293984
437.70 1.293442
437.80 1.2929
437.90 1.292359
438.00 1.291823
438.10 1.291346
438.20 1.290869
438.30 1.290342
438.40 1.289764
438.50 1.289323
438.60 1.288872
438.70 1.288284
438.80 1.287697
438.90 1.287405
439.00 1.286818
439.10 1.286232
439.20 1.285652
439.30 1.28514
439.40 1.284628
439.50 1.284117
439.60 1.283601
439.70 1.28316
439.80 1.282757
439.90 1.282241
440.00 1.281725
440.10 1.281209
440.20 1.280693
440.30 1.28017
440.40 1.279647
440.50 1.279125
440.60 1.278602
440.70 1.278081
440.80 1.277559
440.90 1.277038
441.00 1.276517
441.10 1.275997
441.20 1.275472
441.30 1.274894
441.40 1.274361
441.50 1.273883
441.60 1.273406
441.70 1.272877
441.80 1.272345
441.90 1.271813
442.00 1.271282
442.10 1.270752
442.20 1.270221
442.30 1.269691
442.40 1.269184
442.50 1.268705
442.60 1.268227
442.70 1.267711
442.80 1.267138
442.90 1.266566
443.00 1.266062
443.10 1.26564
443.20 1.265141
443.30 1.26457
443.40 1.264064
443.50 1.263639
443.60 1.263148
443.70 1.262579
443.80 1.26201
443.90 1.261441
444.00 1.260938
444.10 1.260514
444.20 1.260025
444.30 1.259466
444.40 1.259008
444.50 1.258551
444.60 1.258046
444.70 1.25748
444.80 1.256951
444.90 1.256456
445.00 1.255962
445.10 1.255468
445.20 1.254964
445.30 1.254449
445.40 1.253934
445.50 1.253419
445.60 1.252905
445.70 1.252391
445.80 1.251888
445.90 1.251397
446.00 1.250906
446.10 1.250415
446.20 1.249893
446.30 1.249333
446.40 1.24881
446.50 1.248322
446.60 1.247834
446.70 1.247347
446.80 1.246822
446.90 1.246264
447.00 1.245707
447.10 1.24515
447.20 1.244678
447.30 1.24432
447.40 1.243763
447.50 1.243208
447.60 1.242652
447.70 1.242097
447.80 1.241608
447.90 1.2412
448.00 1.240741
448.10 1.240234
448.20 1.239728
448.30 1.239222
448.40 1.238716
448.50 1.238211
448.60 1.237681
448.70 1.23713
448.80 1.236583
448.90 1.236093
449.00 1.235603
449.10 1.235114
449.20 1.234625
449.30 1.234108
449.40 1.233559
449.50 1.23301
449.60 1.232501
449.70 1.232027
449.80 1.231554
449.90 1.231081
450.00 1.230608
450.10 1.230136
450.20 1.229664
450.30 1.229192
450.40 1.228693
450.50 1.228194
450.60 1.227695
450.70 1.227197
450.80 1.226699
450.90 1.226202
451.00 1.225658
451.10 1.225115
451.20 1.224572
451.30 1.224029
451.40 1.223626
451.50 1.223223
451.60 1.222681
451.70 1.22214
451.80 1.221599
451.90 1.221058
452.00 1.220518
452.10 1.219978
452.20 1.219508
452.30 1.219038
452.40 1.218568
452.50 1.218099
452.60 1.217561
452.70 1.217055
452.80 1.216578
452.90 1.216102
453.00 1.215626
453.10 1.215151
453.20 1.214657
453.30 1.214163
453.40 1.21367
453.50 1.213177
453.60 1.212684
453.70 1.212191
453.80 1.21168
453.90 1.211146
454.00 1.210613
454.10 1.21008
454.20 1.209597
454.30 1.209115
454.40 1.208633
454.50 1.208151
454.60 1.20767
454.70 1.207189
454.80 1.206711
454.90 1.206232
455.00 1.205754
455.10 1.205276
455.20 1.204799
455.30 1.204322
455.40 1.203845
455.50 1.203368
455.60 1.202892
455.70 1.202416
455.80 1.201888
455.90 1.201361
456.00 1.200834
456.10 1.200315
456.20 1.199814
456.30 1.199313
456.40 1.198813
456.50 1.198313
456.60 1.197814
456.70 1.197314
456.80 1.196815
456.90 1.196317
457.00 1.195819
457.10 1.195321
457.20 1.19481
457.30 1.194325
457.40 1.193841
457.50 1.193357
457.60 1.192874
457.70 1.19239
457.80 1.191907
457.90 1.191424
458.00 1.190942
458.10 1.19046
458.20 1.189978
458.30 1.189497
458.40 1.189015
458.50 1.188535
458.60 1.188054
458.70 1.18758
458.80 1.18711
458.90 1.18664
459.00 1.18617
459.10 1.1857
459.20 1.185231
459.30 1.184734
459.40 1.184237
459.50 1.18374
459.60 1.183244
459.70 1.182748
459.80 1.182252
459.90 1.181757
460.00 1.181261
460.10 1.180767
460.20 1.180272
460.30 1.179778
460.40 1.179284
460.50 1.178791
460.60 1.178298
460.70 1.177829
460.80 1.177371
460.90 1.176914
461.00 1.176457
461.10 1.176001
461.20 1.175506
461.30 1.174997
461.40 1.174488
461.50 1.173979
461.60 1.17347
461.70 1.172962
461.80 1.172491
461.90 1.172021
462.00 1.17155
462.10 1.171081
462.20 1.170611
462.30 1.170142
462.40 1.169673
462.50 1.169204
462.60 1.168736
462.70 1.168268
462.80 1.1678
462.90 1.167332
463.00 1.166865
463.10 1.166398
463.20 1.165905
463.30 1.165402
463.40 1.164899
463.50 1.164397
463.60 1.163894
463.70 1.163392
463.80 1.162891
463.90 1.162415
464.00 1.161947
464.10 1.161479
464.20 1.161011
464.30 1.160543
464.40 1.160076
464.50 1.159609
464.60 1.159142
464.70 1.158653
464.80 1.158155
464.90 1.157656
465.00 1.157159
465.10 1.156661
465.20 1.156164
465.30 1.155694
465.40 1.155242
465.50 1.154791
465.60 1.15434
465.70 1.15389
465.80 1.153439
465.90 1.152953
466.00 1.152458
466.10 1.151964
466.20 1.15147
466.30 1.150994
466.40 1.150527
466.50 1.15006
466.60 1.149593
466.70 1.149126
466.80 1.14866
466.90 1.148194
467.00 1.147728
467.10 1.147263
467.20 1.146798
467.30 1.146315
467.40 1.145824
467.50 1.145334
467.60 1.144844
467.70 1.144355
467.80 1.143866
467.90 1.143377
468.00 1.142888
468.10 1.1424
468.20 1.141912
468.30 1.141424
468.40 1.140937
468.50 1.14045
468.60 1.139996
468.70 1.139735
468.80 1.139249
468.90 1.138763
469.00 1.138277
469.10 1.137792
469.20 1.137307
469.30 1.136822
469.40 1.136338
469.50 1.135854
469.60 1.13537
469.70 1.134887
469.80 1.134404
469.90 1.133921
470.00 1.133439
470.10 1.132956
470.20 1.132475
470.30 1.131993
470.40 1.131512
470.50 1.131031
470.60 1.130601
470.70 1.130185
470.80 1.129769
470.90 1.129353
471.00 1.128886
471.10 1.128407
471.20 1.127928
471.30 1.127449
471.40 1.126971
471.50 1.126493
471.60 1.126015
471.70 1.125538
471.80 1.125061
471.90 1.124584
472.00 1.124108
472.10 1.123632
472.20 1.123156
472.30 1.12268
472.40 1.122205
472.50 1.12173
472.60 1.121255
472.70 1.120781
472.80 1.120327
472.90 1.119879
473.00 1.119431
473.10 1.118983
473.20 1.118535
473.30 1.118088
473.40 1.117641
473.50 1.117194
473.60 1.116748
473.70 1.116301
473.80 1.115835
473.90 1.115364
474.00 1.114894
474.10 1.114424
474.20 1.113954
474.30 1.113484
474.40 1.113015
474.50 1.112545
474.60 1.112077
474.70 1.111608
474.80 1.11114
474.90 1.110672
475.00 1.110205
475.10 1.109737
475.20 1.10927
475.30 1.108803
475.40 1.108337
475.50 1.107871
475.60 1.107405
475.70 1.10694
475.80 1.106474
475.90 1.106009
476.00 1.105545
476.10 1.10508
476.20 1.104616
476.30 1.104152
476.40 1.103689
476.50 1.103226
476.60 1.102763
476.70 1.1023
476.80 1.101838
476.90 1.101387
477.00 1.100939
477.10 1.100491
477.20 1.100044
477.30 1.099597
477.40 1.09915
477.50 1.098703
477.60 1.098257
477.70 1.097811
477.80 1.097365
477.90 1.09692
478.00 1.096474
478.10 1.096029
478.20 1.095585
478.30 1.09514
478.40 1.094696
478.50 1.094252
478.60 1.093809
478.70 1.093356
478.80 1.092899
478.90 1.092443
479.00 1.091987
479.10 1.091531
479.20 1.091076
479.30 1.09062
479.40 1.090165
479.50 1.089711
479.60 1.089256
479.70 1.088802
479.80 1.088348
479.90 1.087895
480.00 1.087442
480.10 1.086989
480.20 1.086536
480.30 1.086084
480.40 1.085631
480.50 1.08518
480.60 1.084728
480.70 1.084277
480.80 1.083826
480.90 1.083375
481.00 1.082925
481.10 1.082475
481.20 1.082025
481.30 1.081575
481.40 1.081126
481.50 1.080677
481.60 1.080228
481.70 1.07978
481.80 1.079331
481.90 1.078884
482.00 1.078436
482.10 1.077989
482.20 1.07754
482.30 1.077076
482.40 1.076612
482.50 1.076149
482.60 1.075686
482.70 1.075223
482.80 1.07476
482.90 1.074298
483.00 1.073836
483.10 1.073374
483.20 1.072912
483.30 1.072451
483.40 1.07199
483.50 1.07153
483.60 1.071069
483.70 1.070627
483.80 1.070184
483.90 1.069742
484.00 1.0693
484.10 1.068858
484.20 1.068417
484.30 1.067975
484.40 1.067535
484.50 1.067094
484.60 1.066654
484.70 1.066213
484.80 1.065774
484.90 1.065334
485.00 1.064895
485.10 1.064456
485.20 1.064017
485.30 1.063579
485.40 1.06314
485.50 1.062703
485.60 1.062265
485.70 1.061828
485.80 1.06139
485.90 1.060954
486.00 1.060517
486.10 1.060081
486.20 1.059645
486.30 1.059209
486.40 1.058774
486.50 1.058338
486.60 1.057903
486.70 1.057465
486.80 1.056971
486.90 1.056479
487.00 1.055986
487.10 1.055494
487.20 1.055061
487.30 1.054628
487.40 1.054195
487.50 1.053762
487.60 1.05333
487.70 1.052898
487.80 1.052467
487.90 1.052035
488.00 1.051604
488.10 1.051173
488.20 1.050743
488.30 1.050312
488.40 1.049882
488.50 1.049453
488.60 1.049023
488.70 1.048594
488.80 1.048165
488.90 1.047736
489.00 1.047298
489.10 1.046838
489.20 1.046377
489.30 1.045917
489.40 1.045457
489.50 1.044998
489.60 1.044538
489.70 1.044079
489.80 1.043653
489.90 1.043227
490.00 1.042801
490.10 1.042376
490.20 1.04195
490.30 1.041525
490.40 1.041101
490.50 1.040676
490.60 1.040252
490.70 1.039828
490.80 1.039404
490.90 1.038981
491.00 1.038558
491.10 1.038135
491.20 1.037712
491.30 1.03729
491.40 1.036852
491.50 1.036211
491.60 1.03579
491.70 1.035369
491.80 1.034948
491.90 1.034527
492.00 1.034106
492.10 1.033686
492.20 1.033266
492.30 1.032846
492.40 1.032427
492.50 1.032008
492.60 1.031589
492.70 1.03117
492.80 1.030752
492.90 1.030333
493.00 1.029912
493.10 1.029449
493.20 1.028985
493.30 1.028522
493.40 1.028059
493.50 1.027597
493.60 1.027181
493.70 1.026764
493.80 1.026349
493.90 1.025933
494.00 1.025518
494.10 1.025103
494.20 1.024688
494.30 1.024273
494.40 1.023859
494.50 1.023445
494.60 1.023022
494.70 1.022481
494.80 1.021973
494.90 1.02156
495.00 1.021147
495.10 1.020735
495.20 1.020323
495.30 1.019911
495.40 1.019499
495.50 1.019087
495.60 1.018676
495.70 1.018265
495.80 1.017855
495.90 1.017444
496.00 1.017034
496.10 1.016565
496.20 1.015984
496.30 1.015575
496.40 1.015166
496.50 1.014757
496.60 1.014348
496.70 1.01394
496.80 1.013531
496.90 1.013124
497.00 1.012716
497.10 1.012308
497.20 1.011901
497.30 1.011474
497.40 1.01099
497.50 1.010505
497.60 1.010046
497.70 1.00964
497.80 1.009235
497.90 1.008829
498.00 1.008424
498.10 1.00802
498.20 1.007615
498.30 1.007211
498.40 1.006806
498.50 1.006402
498.60 1.005999
498.70 1.005482
498.80 1.004965
498.90 1.004562
499.00 1.004159
499.10 1.003757
499.20 1.003355
499.30 1.002953
499.40 1.002551
499.50 1.00215
499.60 1.001749
499.70 1.001344
499.80 1.000896
499.90 1.000448
500.00 1
500.10 0.9995524
500.20 0.9991204
500.30 0.998721
500.40 0.9983219
500.50 0.997923
500.60 0.9975243
500.70 0.9971259
500.80 0.996706
500.90 0.99624
501.00 0.9957744
501.10 0.995309
501.20 0.9949119
501.30 0.994515
501.40 0.9941183
501.50 0.9937219
501.60 0.9933257
501.70 0.9929298
501.80 0.9925341
501.90 0.9921386
502.00 0.9917114
502.10 0.9912165
502.20 0.990729
502.30 0.9903345
502.40 0.9899403
502.50 0.9895464
502.60 0.9891526
502.70 0.9887591
502.80 0.9883659
502.90 0.9879728
503.00 0.9875624
503.10 0.9871147
503.20 0.9866673
503.30 0.9862202
503.40 0.9857876
503.50 0.9853961
503.60 0.9850048
503.70 0.9846137
503.80 0.9842229
503.90 0.9838323
504.00 0.9834243
504.10 0.9829793
504.20 0.9825345
504.30 0.98209
504.40 0.9816601
504.50 0.9812709
504.60 0.980882
504.70 0.9804934
504.80 0.980105
504.90 0.9797168
505.00 0.9791066
505.10 0.978719
505.20 0.9783315
505.30 0.9779444
505.40 0.9775574
505.50 0.9771707
505.60 0.9767725
505.70 0.9763496
505.80 0.9759271
505.90 0.9755048
506.00 0.9750827
506.10 0.9746609
506.20 0.9742424
506.30 0.9738329
506.40 0.9734236
506.50 0.9730146
506.60 0.9726058
506.70 0.9721972
506.80 0.9717889
506.90 0.9713809
507.00 0.9709731
507.10 0.9705734
507.20 0.9701836
507.30 0.9697736
507.40 0.9693639
507.50 0.9689544
507.60 0.9685452
507.70 0.9681362
507.80 0.9677274
507.90 0.967319
508.00 0.9669107
508.10 0.9665027
508.20 0.966095
508.30 0.9656875
508.40 0.9652802
508.50 0.9648732
508.60 0.9644664
508.70 0.9640599
508.80 0.9636608
508.90 0.9632821
509.00 0.9629036
509.10 0.9625138
509.20 0.9620995
509.30 0.9616855
509.40 0.9612718
509.50 0.9608583
509.60 0.960445
509.70 0.960032
509.80 0.9596193
509.90 0.9592068
510.00 0.9587945
510.10 0.9583825
510.20 0.9579708
510.30 0.9575643
510.40 0.9571723
510.50 0.9567805
510.60 0.956389
510.70 0.9559977
510.80 0.9556067
510.90 0.9552158
511.00 0.9548252
511.10 0.9544349
511.20 0.9540448
511.30 0.9536549
511.40 0.9532652
511.50 0.9528758
511.60 0.9524821
511.70 0.9520792
511.80 0.9516766
511.90 0.9512741
512.00 0.950872
512.10 0.95047
512.20 0.9500684
512.30 0.9496646
512.40 0.9492545
512.50 0.9488446
512.60 0.948435
512.70 0.9480256
512.80 0.9476165
512.90 0.9472076
513.00 0.946799
513.10 0.9463906
513.20 0.9459825
513.30 0.9455746
513.40 0.9451669
513.50 0.9447595
513.60 0.9443524
513.70 0.9439455
513.80 0.9435388
513.90 0.9431324
514.00 0.9427384
514.10 0.9423467
514.20 0.9419552
514.30 0.9415639
514.40 0.9411729
514.50 0.9407821
514.60 0.9403915
514.70 0.9400012
514.80 0.939611
514.90 0.9392212
515.00 0.9388315
515.10 0.9384421
515.20 0.9380529
515.30 0.937664
515.40 0.9372752
515.50 0.9368867
515.60 0.9364985
515.70 0.9361105
515.80 0.9357227
515.90 0.9353351
516.00 0.9349478
516.10 0.9345606
516.20 0.9341738
516.30 0.9337871
516.40 0.9334007
516.50 0.9330132
516.60 0.9326189
516.70 0.9322249
516.80 0.9318312
516.90 0.9314377
517.00 0.9310444
517.10 0.9306513
517.20 0.9302585
517.30 0.9298659
517.40 0.9294735
517.50 0.9290814
517.60 0.9286895
517.70 0.9282979
517.80 0.9279064
517.90 0.9275152
518.00 0.9271243
518.10 0.9267336
518.20 0.9263431
518.30 0.9259528
518.40 0.9255628
518.50 0.925173
518.60 0.9247834
518.70 0.9243941
518.80 0.924005
518.90 0.9236161
519.00 0.9232275
519.10 0.9228373
519.20 0.9224454
519.30 0.9220538
519.40 0.9216624
519.50 0.9212712
519.60 0.9208802
519.70 0.9204895
519.80 0.920099
519.90 0.9197087
520.00 0.9193187
520.10 0.9189289
520.20 0.9185393
520.30 0.91815
520.40 0.9177609
520.50 0.917372
520.60 0.9169834
520.70 0.916595
520.80 0.9162068
520.90 0.9158188
521.00 0.9154311
521.10 0.9150436
521.20 0.9146564
521.30 0.9142694
521.40 0.9138826
521.50 0.913496
521.60 0.9131096
521.70 0.9127235
521.80 0.9123377
521.90 0.911952
522.00 0.9115666
522.10 0.9111814
522.20 0.9107964
522.30 0.9104117
522.40 0.9100272
522.50 0.9096429
522.60 0.9092588
522.70 0.908875
522.80 0.9084914
522.90 0.908108
523.00 0.9077249
523.10 0.9073419
523.20 0.9069592
523.30 0.9065768
523.40 0.9061945
523.50 0.9058125
523.60 0.9054307
523.70 0.9050491
523.80 0.9046678
523.90 0.9042867
524.00 0.9039058
524.10 0.9035251
524.20 0.9031447
524.30 0.9027625
524.40 0.9023789
524.50 0.9019955
524.60 0.9016124
524.70 0.9012295
524.80 0.9008469
524.90 0.9004644
525.00 0.9000822
525.10 0.8997002
525.20 0.8993184
525.30 0.8989369
525.40 0.8985556
525.50 0.8981745
525.60 0.8977936
525.70 0.897413
525.80 0.8970326
525.90 0.8966524
526.00 0.8962724
526.10 0.8958927
526.20 0.8955132
526.30 0.8951339
526.40 0.8947548
526.50 0.8943759
526.60 0.8939973
526.70 0.8936189
526.80 0.8932407
526.90 0.8928628
527.00 0.8924851
527.10 0.8921075
527.20 0.8917303
527.30 0.8913532
527.40 0.8909763
527.50 0.8905997
527.60 0.8902233
527.70 0.8898471
527.80 0.8894712
527.90 0.8890954
528.00 0.8887199
528.10 0.8883446
528.20 0.8879696
528.30 0.8875947
528.40 0.8872201
528.50 0.8868456
528.60 0.8864714
528.70 0.8860975
528.80 0.8857237
528.90 0.8853502
529.00 0.8849769
529.10 0.8846038
529.20 0.8842309
529.30 0.8838582
529.40 0.8834858
529.50 0.8831136
529.60 0.882742
529.70 0.8823706
529.80 0.8819994
529.90 0.8816284
530.00 0.8812577
530.10 0.8808872
530.20 0.8805169
530.30 0.8801468
530.40 0.8797769
530.50 0.8794072
530.60 0.8790378
530.70 0.8786686
530.80 0.8782995
530.90 0.8779307
531.00 0.8775622
531.10 0.8771938
531.20 0.8768256
531.30 0.8764577
531.40 0.87609
531.50 0.8757225
531.60 0.8753552
531.70 0.8749881
531.80 0.8746212
531.90 0.8742546
532.00 0.8738881
532.10 0.8735219
532.20 0.8731559
532.30 0.8727901
532.40 0.8724245
532.50 0.8720591
532.60 0.8716939
532.70 0.871329
532.80 0.8709642
532.90 0.8705997
533.00 0.8702354
533.10 0.8698713
533.20 0.8695074
533.30 0.8691437
533.40 0.8687802
533.50 0.868417
533.60 0.8680539
533.70 0.8676911
533.80 0.8673284
533.90 0.866966
534.00 0.8666038
534.10 0.8662418
534.20 0.86588
534.30 0.8655184
534.40 0.8651571
534.50 0.8647959
534.60 0.864435
534.70 0.8640742
534.80 0.8637124
534.90 0.863345
535.00 0.8629779
535.10 0.862611
535.20 0.8622443
535.30 0.8618778
535.40 0.8615115
535.50 0.8611454
535.60 0.8607796
535.70 0.8604139
535.80 0.8600485
535.90 0.8596833
536.00 0.8593183
536.10 0.8589535
536.20 0.8585889
536.30 0.8582246
536.40 0.8578604
536.50 0.8574965
536.60 0.8571328
536.70 0.8567693
536.80 0.8564059
536.90 0.8560429
537.00 0.85568
537.10 0.8553173
537.20 0.8549548
537.30 0.8545926
537.40 0.8542306
537.50 0.8538687
537.60 0.8535071
537.70 0.8531457
537.80 0.8527845
537.90 0.8524235
538.00 0.8520627
538.10 0.8517022
538.20 0.8513418
538.30 0.8509816
538.40 0.8506217
538.50 0.850262
538.60 0.8499024
538.70 0.8495431
538.80 0.849184
538.90 0.8488251
539.00 0.8484664
539.10 0.8481079
539.20 0.8477497
539.30 0.8473916
539.40 0.8470337
539.50 0.8466761
539.60 0.8463186
539.70 0.8459614
539.80 0.8456043
539.90 0.8452475
540.00 0.8448909
540.10 0.8445345
540.20 0.8441785
540.30 0.843823
540.40 0.8434676
540.50 0.8431124
540.60 0.8427575
540.70 0.8424027
540.80 0.8420481
540.90 0.8416938
541.00 0.8413397
541.10 0.8409857
541.20 0.840632
541.30 0.8402784
541.40 0.8399251
541.50 0.839572
541.60 0.8392191
541.70 0.8388664
541.80 0.8385138
541.90 0.8381615
542.00 0.8378094
542.10 0.8374575
542.20 0.8371058
542.30 0.8367543
542.40 0.836403
542.50 0.8360519
542.60 0.835701
542.70 0.8353503
542.80 0.8349998
542.90 0.8346495
543.00 0.8342995
543.10 0.8339496
543.20 0.8335999
543.30 0.8332504
543.40 0.8329011
543.50 0.832552
543.60 0.8322031
543.70 0.8318545
543.80 0.831506
543.90 0.8311577
544.00 0.8308096
544.10 0.8304617
544.20 0.830114
544.30 0.8297666
544.40 0.8294193
544.50 0.8290722
544.60 0.8287253
544.70 0.8283786
544.80 0.8280321
544.90 0.8276858
545.00 0.8273397
545.10 0.8269939
545.20 0.8266482
545.30 0.8263027
545.40 0.8259574
545.50 0.8256123
545.60 0.8252628
545.70 0.8249115
545.80 0.8245605
545.90 0.8242096
546.00 0.823859
546.10 0.8235085
546.20 0.8231583
546.30 0.8228082
546.40 0.8224584
546.50 0.8221087
546.60 0.8217593
546.70 0.8214101
546.80 0.821061
546.90 0.8207122
547.00 0.8203635
547.10 0.8200151
547.20 0.8196668
547.30 0.8193188
547.40 0.818971
547.50 0.8186233
547.60 0.8182759
547.70 0.8179286
547.80 0.8175816
547.90 0.8172347
548.00 0.8168881
548.10 0.8165417
548.20 0.8161954
548.30 0.8158522
548.40 0.8155133
548.50 0.8151745
548.60 0.8148359
548.70 0.8144976
548.80 0.8141594
548.90 0.8138214
549.00 0.8134836
549.10 0.8131459
549.20 0.8128085
549.30 0.8124713
549.40 0.8121342
549.50 0.8117974
549.60 0.8114607
549.70 0.8111243
549.80 0.810788
549.90 0.8104519
550.00 0.810116
550.10 0.8097803
550.20 0.8094448
550.30 0.8091095
550.40 0.8087743
550.50 0.8084394
550.60 0.8081046
550.70 0.8077701
550.80 0.8074357
550.90 0.8071015
551.00 0.8067666
551.10 0.8064264
551.20 0.8060865
551.30 0.8057467
551.40 0.8054071
551.50 0.8050677
551.60 0.8047285
551.70 0.8043895
551.80 0.8040507
551.90 0.8037121
552.00 0.8033737
552.10 0.8030355
552.20 0.8026974
552.30 0.8023596
552.40 0.8020219
552.50 0.8016845
552.60 0.8013472
552.70 0.8010101
552.80 0.8006733
552.90 0.8003366
553.00 0.8000001
553.10 0.7996637
553.20 0.7993276
553.30 0.7989917
553.40 0.798656
553.50 0.7983204
553.60 0.7979851
553.70 0.7976499
553.80 0.7973109
553.90 0.7969694
554.00 0.7966281
554.10 0.796287
554.20 0.7959461
554.30 0.7956054
554.40 0.7952649
554.50 0.7949245
554.60 0.7945844
554.70 0.7942445
554.80 0.7939047
554.90 0.7935652
555.00 0.7932258
555.10 0.7928867
555.20 0.7925477
555.30 0.7922089
555.40 0.7918703
555.50 0.7915319
555.60 0.7911937
555.70 0.7908557
555.80 0.7905179
555.90 0.7901803
556.00 0.7898428
556.10 0.7895056
556.20 0.7891685
556.30 0.7888317
556.40 0.788495
556.50 0.7881587
556.60 0.7878263
556.70 0.787494
556.80 0.7871619
556.90 0.78683
557.00 0.7864982
557.10 0.7861667
557.20 0.7858353
557.30 0.7855042
557.40 0.7851732
557.50 0.7848424
557.60 0.7845118
557.70 0.7841814
557.80 0.7838512
557.90 0.7835211
558.00 0.7831913
558.10 0.7828616
558.20 0.7825321
558.30 0.7822028
558.40 0.7818737
558.50 0.7815448
558.60 0.7812161
558.70 0.7808875
558.80 0.7805591
558.90 0.7802309
559.00 0.7799029
559.10 0.7795751
559.20 0.7792475
559.30 0.77892
559.40 0.7785928
559.50 0.7782657
559.60 0.7779388
559.70 0.7776121
559.80 0.7772856
559.90 0.7769592
560.00 0.7766331
560.10 0.7763071
560.20 0.7759813
560.30 0.7756557
560.40 0.7753303
560.50 0.775005
560.60 0.77468
560.70 0.7743551
560.80 0.7740304
560.90 0.7737059
561.00 0.7733815
561.10 0.7730574
561.20 0.7727334
561.30 0.7724096
561.40 0.772086
561.50 0.7717626
561.60 0.7714394
561.70 0.7711163
561.80 0.7707934
561.90 0.7704707
562.00 0.7701482
562.10 0.7698273
562.20 0.7695089
562.30 0.7691906
562.40 0.7688724
562.50 0.7685545
562.60 0.7682367
562.70 0.7679191
562.80 0.7676017
562.90 0.7672845
563.00 0.7669674
563.10 0.7666505
563.20 0.7663338
563.30 0.7660173
563.40 0.765701
563.50 0.7653848
563.60 0.7650688
563.70 0.764753
563.80 0.7644373
563.90 0.7641218
564.00 0.7638065
564.10 0.7634914
564.20 0.7631765
564.30 0.7628617
564.40 0.7625471
564.50 0.7622327
564.60 0.7619184
564.70 0.7616044
564.80 0.7612905
564.90 0.7609749
565.00 0.760655
565.10 0.7603353
565.20 0.7600158
565.30 0.7596965
565.40 0.7593773
565.50 0.7590583
565.60 0.7587395
565.70 0.7584209
565.80 0.7581024
565.90 0.7577842
566.00 0.7574661
566.10 0.7571481
566.20 0.7568304
566.30 0.7565128
566.40 0.7561954
566.50 0.7558782
566.60 0.7555612
566.70 0.7552443
566.80 0.7549277
566.90 0.7546112
567.00 0.7542948
567.10 0.7539787
567.20 0.7536627
567.30 0.7533469
567.40 0.7530313
567.50 0.7527158
567.60 0.7524006
567.70 0.752085
567.80 0.7517675
567.90 0.7514501
568.00 0.7511329
568.10 0.750816
568.20 0.7504992
568.30 0.7501825
568.40 0.7498661
568.50 0.7495498
568.60 0.7492337
568.70 0.7489178
568.80 0.748602
568.90 0.7482864
569.00 0.747971
569.10 0.7476558
569.20 0.7473408
569.30 0.7470259
569.40 0.7467112
569.50 0.7463967
569.60 0.7460823
569.70 0.7457681
569.80 0.7454541
569.90 0.7451403
570.00 0.7448267
570.10 0.7445132
570.20 0.7441999
570.30 0.7438867
570.40 0.7435738
570.50 0.743261
570.60 0.7429484
570.70 0.742636
570.80 0.7423237
570.90 0.7420116
571.00 0.7416997
571.10 0.741388
571.20 0.7410764
571.30 0.740765
571.40 0.7404538
571.50 0.7401427
571.60 0.7398318
571.70 0.7395211
571.80 0.7392106
571.90 0.7389002
572.00 0.73859
572.10 0.73828
572.20 0.7379702
572.30 0.7376605
572.40 0.737351
572.50 0.7370417
572.60 0.7367325
572.70 0.7364235
572.80 0.7361147
572.90 0.735806
573.00 0.7354976
573.10 0.7351892
573.20 0.7348811
573.30 0.7345731
573.40 0.7342646
573.50 0.7339553
573.60 0.7336462
573.70 0.7333372
573.80 0.7330284
573.90 0.7327198
574.00 0.7324113
574.10 0.732103
574.20 0.7317949
574.30 0.731487
574.40 0.7311792
574.50 0.7308716
574.60 0.7305642
574.70 0.7302569
574.80 0.7299498
574.90 0.7296429
575.00 0.7293361
575.10 0.7290295
575.20 0.7287231
575.30 0.7284168
575.40 0.7281108
575.50 0.7278048
575.60 0.7274991
575.70 0.7271935
575.80 0.7268881
575.90 0.7265829
576.00 0.7262778
576.10 0.7259729
576.20 0.7256681
576.30 0.7253636
576.40 0.7250592
576.50 0.7247549
576.60 0.7244509
576.70 0.724147
576.80 0.7238432
576.90 0.7235397
577.00 0.7232363
577.10 0.7229331
577.20 0.72263
577.30 0.7223271
577.40 0.7220244
577.50 0.7217218
577.60 0.7214225
577.70 0.7211283
577.80 0.7208343
577.90 0.7205405
578.00 0.7202468
578.10 0.7199533
578.20 0.71966
578.30 0.7193668
578.40 0.7190738
578.50 0.7187809
578.60 0.7184882
578.70 0.7181956
578.80 0.7179032
578.90 0.717611
579.00 0.7173189
579.10 0.7170263
579.20 0.7167266
579.30 0.716427
579.40 0.7161275
579.50 0.7158283
579.60 0.7155292
579.70 0.7152303
579.80 0.7149315
579.90 0.7146329
580.00 0.7143344
580.10 0.7140335
580.20 0.7137285
580.30 0.7134237
580.40 0.713119
580.50 0.7128145
580.60 0.7125101
580.70 0.7122059
580.80 0.7119019
580.90 0.7115981
581.00 0.7112944
581.10 0.7109909
581.20 0.7106875
581.30 0.7103843
581.40 0.7100813
581.50 0.7097785
581.60 0.7094758
581.70 0.7091733
581.80 0.7088709
581.90 0.7085687
582.00 0.7082667
582.10 0.7079702
582.20 0.7076824
582.30 0.7073948
582.40 0.7071073
582.50 0.7068201
582.60 0.7065329
582.70 0.7062459
582.80 0.7059591
582.90 0.7056724
583.00 0.7053859
583.10 0.7050996
583.20 0.7048134
583.30 0.7045273
583.40 0.7042414
583.50 0.7039557
583.60 0.703663
583.70 0.7033589
583.80 0.703055
583.90 0.7027513
584.00 0.7024477
584.10 0.7021443
584.20 0.701841
584.30 0.701538
584.40 0.7012351
584.50 0.7009323
584.60 0.7006297
584.70 0.7003273
584.80 0.7000251
584.90 0.6997343
585.00 0.6994951
585.10 0.699256
585.20 0.6989919
585.30 0.6986869
585.40 0.6983821
585.50 0.6980775
585.60 0.697773
585.70 0.6974687
585.80 0.6971645
585.90 0.6968605
586.00 0.6965567
586.10 0.6962531
586.20 0.6959538
586.30 0.6956614
586.40 0.6953693
586.50 0.6950772
586.60 0.6947854
586.70 0.6944937
586.80 0.6942074
586.90 0.6939297
587.00 0.6936522
587.10 0.6933748
587.20 0.693082
587.30 0.6927638
587.40 0.6924771
587.50 0.6922414
587.60 0.6920058
587.70 0.6916063
587.80 0.691371
587.90 0.6911358
588.00 0.6908696
588.10 0.6905527
588.20 0.6902361
588.30 0.6899196
588.40 0.6896136
588.50 0.6893248
588.60 0.689036
588.70 0.6887475
588.80 0.6884591
588.90 0.6881708
589.00 0.6878848
589.10 0.6876023
589.20 0.68732
589.30 0.6870378
589.40 0.6867557
589.50 0.6864738
589.60 0.6861921
589.70 0.6859105
589.80 0.6856291
589.90 0.6853478
590.00 0.6850691
590.10 0.6847946
590.20 0.6845203
590.30 0.6842461
590.40 0.6839721
590.50 0.6836982
590.60 0.6834244
590.70 0.6831508
590.80 0.682866
590.90 0.6825763
591.00 0.6822868
591.10 0.6819974
591.20 0.6817082
591.30 0.6814192
591.40 0.6811303
591.50 0.6808415
591.60 0.6805546
591.70 0.6802707
591.80 0.6799868
591.90 0.6797032
592.00 0.6794197
592.10 0.6791364
592.20 0.6788532
592.30 0.6785701
592.40 0.6782872
592.50 0.6780045
592.60 0.6777219
592.70 0.6774395
592.80 0.6771572
592.90 0.6768751
593.00 0.6765931
593.10 0.6763102
593.20 0.6760259
593.30 0.6757417
593.40 0.6754576
593.50 0.6751737
593.60 0.67489
593.70 0.6746064
593.80 0.674323
593.90 0.6740397
594.00 0.6737565
594.10 0.6734736
594.20 0.6731907
594.30 0.672908
594.40 0.6726255
594.50 0.6723431
594.60 0.6720609
594.70 0.6717789
594.80 0.6714969
594.90 0.6712152
595.00 0.6709336
595.10 0.6706541
595.20 0.670378
595.30 0.6701021
595.40 0.6698263
595.50 0.6695507
595.60 0.6692752
595.70 0.6689998
595.80 0.6687246
595.90 0.6684496
596.00 0.6681747
596.10 0.6679
596.20 0.6676254
596.30 0.6673509
596.40 0.6670766
596.50 0.6668024
596.60 0.6665284
596.70 0.6662538
596.80 0.6659789
596.90 0.6657041
597.00 0.6654295
597.10 0.6651551
597.20 0.6648807
597.30 0.6646066
597.40 0.6643325
597.50 0.6640587
597.60 0.6637837
597.70 0.6635068
597.80 0.6632301
597.90 0.6629536
598.00 0.6626772
598.10 0.6624009
598.20 0.6621248
598.30 0.6618489
598.40 0.6615731
598.50 0.6612974
598.60 0.6610219
598.70 0.6607465
598.80 0.6604713
598.90 0.6601962
599.00 0.6599213
599.10 0.6596465
599.20 0.6593718
599.30 0.6590974
599.40 0.6588223
599.50 0.6585473
599.60 0.6582725
599.70 0.6579979
599.80 0.6577233
599.90 0.657449
600.00 0.6571748
600.10 0.6569007
600.20 0.6566268
600.30 0.656353
600.40 0.6560794
600.50 0.6558059
600.60 0.6555325
600.70 0.6552593
600.80 0.6549863
600.90 0.6547134
601.00 0.6544406
601.10 0.654168
601.20 0.6538955
601.30 0.6536232
601.40 0.6533579
601.50 0.6530926
601.60 0.6528275
601.70 0.6525626
601.80 0.6522978
601.90 0.6520331
602.00 0.6517686
602.10 0.6515042
602.20 0.65124
602.30 0.6509759
602.40 0.6507119
602.50 0.6504481
602.60 0.6501844
602.70 0.6498903
602.80 0.6495947
602.90 0.6493208
603.00 0.649047
603.10 0.6487734
603.20 0.6484999
603.30 0.6482265
603.40 0.6479533
603.50 0.6476803
603.60 0.6474074
603.70 0.6471346
603.80 0.646862
603.90 0.6465895
604.00 0.6463172
604.10 0.646045
604.20 0.645773
604.30 0.6455011
604.40 0.6452293
604.50 0.6449694
604.60 0.6447095
604.70 0.6444498
604.80 0.6441903
604.90 0.6439308
605.00 0.6436716
605.10 0.6434124
605.20 0.6431534
605.30 0.6428945
605.40 0.6426358
605.50 0.642372
605.60 0.6421084
605.70 0.6418449
605.80 0.6415815
605.90 0.6413183
606.00 0.6410553
606.10 0.6407666
606.20 0.6404782
606.30 0.6401898
606.40 0.6399017
606.50 0.6396907
606.60 0.6394798
606.70 0.6391151
606.80 0.6389044
606.90 0.6386939
607.00 0.6383297
607.10 0.6381194
607.20 0.6379092
607.30 0.6376224
607.40 0.6373357
607.50 0.6370491
607.60 0.6367627
607.70 0.636502
607.80 0.6362414
607.90 0.635981
608.00 0.6357207
608.10 0.6354606
608.20 0.6352006
608.30 0.6349207
608.40 0.634641
608.50 0.6343614
608.60 0.634082
608.70 0.6338146
608.80 0.6335526
608.90 0.6332908
609.00 0.6330292
609.10 0.6327677
609.20 0.6325063
609.30 0.632251
609.40 0.6319958
609.50 0.6317408
609.60 0.6314859
609.70 0.6312311
609.80 0.6309765
609.90 0.630722
610.00 0.6304677
610.10 0.6302134
610.20 0.6299593
610.30 0.6297054
610.40 0.6294515
610.50 0.6291978
610.60 0.6289443
610.70 0.6286908
610.80 0.6284375
610.90 0.6281711
611.00 0.6279048
611.10 0.6276386
611.20 0.6273726
611.30 0.6271067
611.40 0.6268409
611.50 0.6265753
611.60 0.6263099
611.70 0.6260445
611.80 0.6257793
611.90 0.6255143
612.00 0.6252494
612.10 0.6249846
612.20 0.62472
612.30 0.6244555
612.40 0.6241987
612.50 0.623942
612.60 0.6236855
612.70 0.6234291
612.80 0.6231728
612.90 0.6229167
613.00 0.6226607
613.10 0.6224049
613.20 0.6221491
613.30 0.6218935
613.40 0.6216381
613.50 0.6213828
613.60 0.6211276
613.70 0.6208725
613.80 0.6206176
613.90 0.6203628
614.00 0.6201081
614.10 0.6198536
614.20 0.6195992
614.30 0.619345
614.40 0.6191074
614.50 0.6188699
614.60 0.6186326
614.70 0.6183953
614.80 0.6181403
614.90 0.6178817
615.00 0.6176233
615.10 0.6173649
615.20 0.6171068
615.30 0.6168487
615.40 0.6165908
615.50 0.616333
615.60 0.6160754
615.70 0.6158179
615.80 0.6155605
615.90 0.6153033
616.00 0.6150461
616.10 0.6147892
616.20 0.6145323
616.30 0.6142756
616.40 0.6140191
616.50 0.6137626
616.60 0.6135063
616.70 0.6132502
616.80 0.6129941
616.90 0.6127405
617.00 0.6124869
617.10 0.6122335
617.20 0.6119803
617.30 0.6117271
617.40 0.6114741
617.50 0.6112212
617.60 0.6109685
617.70 0.6107159
617.80 0.6104634
617.90 0.610211
618.00 0.6099588
618.10 0.6097067
618.20 0.6094548
618.30 0.609203
618.40 0.6089513
618.50 0.6086997
618.60 0.6084483
618.70 0.608197
618.80 0.6079458
618.90 0.6076948
619.00 0.6074438
619.10 0.6071931
619.20 0.6069424
619.30 0.6066919
619.40 0.6064415
619.50 0.6061912
619.60 0.6059411
619.70 0.6056911
619.80 0.6054412
619.90 0.6051915
620.00 0.6049419
620.10 0.6046924
620.20 0.6044431
620.30 0.6041938
620.40 0.6039447
620.50 0.6036958
620.60 0.6034469
620.70 0.6031982
620.80 0.6029497
620.90 0.6027011
621.00 0.6024526
621.10 0.6022042
621.20 0.601956
621.30 0.6017079
621.40 0.6014599
621.50 0.601212
621.60 0.6009642
621.70 0.6007166
621.80 0.6004691
621.90 0.6002218
622.00 0.5999745
622.10 0.5997274
622.20 0.5994805
622.30 0.5992336
622.40 0.5989869
622.50 0.5987403
622.60 0.5984938
622.70 0.5982475
622.80 0.5980013
622.90 0.5977552
623.00 0.5975093
623.10 0.5972634
623.20 0.5970177
623.30 0.5967722
623.40 0.5965267
623.50 0.5962814
623.60 0.5960362
623.70 0.5957911
623.80 0.5955462
623.90 0.5953014
624.00 0.5950567
624.10 0.5948121
624.20 0.5945677
624.30 0.5943234
624.40 0.5940792
624.50 0.5938351
624.60 0.5935912
624.70 0.5933474
624.80 0.5931037
624.90 0.5928602
625.00 0.5926167
625.10 0.5923734
625.20 0.5921302
625.30 0.5918872
625.40 0.5916443
625.50 0.5914015
625.60 0.5911588
625.70 0.5909162
625.80 0.5906738
625.90 0.5904315
626.00 0.5901893
626.10 0.5899472
626.20 0.5897053
626.30 0.5894635
626.40 0.5892218
626.50 0.5889803
626.60 0.5887388
626.70 0.5884975
626.80 0.5882563
626.90 0.5880153
627.00 0.5877743
627.10 0.5875343
627.20 0.5872964
627.30 0.5870587
627.40 0.586821
627.50 0.5865835
627.60 0.5863461
627.70 0.5861089
627.80 0.5858717
627.90 0.5856347
628.00 0.5853978
628.10 0.585161
628.20 0.5849244
628.30 0.5846878
628.40 0.5844514
628.50 0.5842151
628.60 0.5839789
628.70 0.5837429
628.80 0.5835069
628.90 0.5832711
629.00 0.5830354
629.10 0.5827999
629.20 0.5825644
629.30 0.5823291
629.40 0.5820939
629.50 0.5818588
629.60 0.5816238
629.70 0.581389
629.80 0.5811542
629.90 0.5809196
630.00 0.5806851
630.10 0.5804507
630.20 0.5802165
630.30 0.5799782
630.40 0.5797396
630.50 0.5795012
630.60 0.5792629
630.70 0.5790247
630.80 0.5787867
630.90 0.5785487
631.00 0.5783109
631.10 0.5780732
631.20 0.5778357
631.30 0.5775982
631.40 0.5773609
631.50 0.5771237
631.60 0.5768866
631.70 0.5766496
631.80 0.5764128
631.90 0.5761761
632.00 0.5759395
632.10 0.575703
632.20 0.5754666
632.30 0.5752304
632.40 0.5749943
632.50 0.5747583
632.60 0.5745224
632.70 0.5742867
632.80 0.574051
632.90 0.5738155
633.00 0.5735801
633.10 0.5733448
633.20 0.5731097
633.30 0.5728747
633.40 0.57264
633.50 0.5724057
633.60 0.5721716
633.70 0.5719375
633.80 0.5717036
633.90 0.5714698
634.00 0.5712361
634.10 0.5710025
634.20 0.5707691
634.30 0.5705358
634.40 0.5703026
634.50 0.5700695
634.60 0.5698365
634.70 0.5696036
634.80 0.5693709
634.90 0.5691383
635.00 0.5689058
635.10 0.5686734
635.20 0.5684411
635.30 0.568209
635.40 0.5679769
635.50 0.567745
635.60 0.5675132
635.70 0.5672816
635.80 0.56705
635.90 0.5668186
636.00 0.5665872
636.10 0.566356
636.20 0.566125
636.30 0.565894
636.40 0.5656631
636.50 0.5654324
636.60 0.5652018
636.70 0.5649713
636.80 0.5647409
636.90 0.5645107
637.00 0.5642806
637.10 0.5640505
637.20 0.5638206
637.30 0.5635908
637.40 0.5633612
637.50 0.5631316
637.60 0.5629022
637.70 0.5626729
637.80 0.5624437
637.90 0.5622146
638.00 0.5619856
638.10 0.5617568
638.20 0.561528
638.30 0.5612994
638.40 0.5610709
638.50 0.5608425
638.60 0.5606142
638.70 0.560386
638.80 0.560158
638.90 0.5599301
639.00 0.5597023
639.10 0.5594746
639.20 0.559247
639.30 0.5590195
639.40 0.5587921
639.50 0.5585649
639.60 0.5583378
639.70 0.5581099
639.80 0.5578792
639.90 0.5576486
640.00 0.5574181
640.10 0.5571878
640.20 0.5569576
640.30 0.5567275
640.40 0.5564975
640.50 0.5562676
640.60 0.5560378
640.70 0.5558082
640.80 0.5555786
640.90 0.5553492
641.00 0.5551199
641.10 0.5548907
641.20 0.5546617
641.30 0.5544327
641.40 0.5542039
641.50 0.5539751
641.60 0.5537465
641.70 0.553518
641.80 0.5532897
641.90 0.5530614
642.00 0.5528333
642.10 0.5526052
642.20 0.5523773
642.30 0.5521495
642.40 0.5519219
642.50 0.5516943
642.60 0.5514668
642.70 0.5512395
642.80 0.5510123
642.90 0.5507862
643.00 0.5505635
643.10 0.5503408
643.20 0.5501183
643.30 0.5498959
643.40 0.5496737
643.50 0.5494515
643.60 0.5492294
643.70 0.5490075
643.80 0.5487857
643.90 0.5485639
644.00 0.5483423
644.10 0.5481208
644.20 0.5478994
644.30 0.5476782
644.40 0.547457
644.50 0.5472359
644.60 0.547015
644.70 0.5467942
644.80 0.5465734
644.90 0.5463528
645.00 0.5461323
645.10 0.5459119
645.20 0.5456917
645.30 0.5454715
645.40 0.5452514
645.50 0.5450315
645.60 0.5448116
645.70 0.5445919
645.80 0.5443723
645.90 0.5441528
646.00 0.5439334
646.10 0.5437142
646.20 0.5434955
646.30 0.543277
646.40 0.5430585
646.50 0.5428402
646.60 0.5426219
646.70 0.5424038
646.80 0.5421858
646.90 0.5419678
647.00 0.54175
647.10 0.5415323
647.20 0.5413148
647.30 0.5410973
647.40 0.5408799
647.50 0.5406626
647.60 0.5404455
647.70 0.5402284
647.80 0.5400115
647.90 0.5397947
648.00 0.539578
648.10 0.5393614
648.20 0.5391448
648.30 0.5389285
648.40 0.5387122
648.50 0.538496
648.60 0.5382799
648.70 0.5380639
648.80 0.5378481
648.90 0.5376323
649.00 0.5374167
649.10 0.5372012
649.20 0.5369857
649.30 0.5367704
649.40 0.5365512
649.50 0.536332
649.60 0.5361128
649.70 0.5358938
649.80 0.5356749
649.90 0.5354561
650.00 0.5352374
650.10 0.5350188
650.20 0.5348003
650.30 0.5345819
650.40 0.5343637
650.50 0.5341455
650.60 0.5339275
650.70 0.5337095
650.80 0.5334917
650.90 0.533274
651.00 0.5330564
651.10 0.5328389
651.20 0.5326215
651.30 0.5324042
651.40 0.532187
651.50 0.5319699
651.60 0.531753
651.70 0.5315361
651.80 0.5313194
651.90 0.5311027
652.00 0.5308862
652.10 0.5306698
652.20 0.5304535
652.30 0.5302373
652.40 0.5300212
652.50 0.5298052
652.60 0.5295886
652.70 0.5293717
652.80 0.5291549
652.90 0.5289382
653.00 0.5287217
653.10 0.5285052
653.20 0.5282888
653.30 0.5280726
653.40 0.5278565
653.50 0.5276404
653.60 0.5274245
653.70 0.5272087
653.80 0.526993
653.90 0.5267774
654.00 0.5265619
654.10 0.5263465
654.20 0.5261312
654.30 0.5259161
654.40 0.525701
654.50 0.525486
654.60 0.5252712
654.70 0.5250564
654.80 0.5248418
654.90 0.5246273
655.00 0.5244129
655.10 0.5241985
655.20 0.5239843
655.30 0.5237702
655.40 0.5235562
655.50 0.5233423
655.60 0.5231285
655.70 0.5229149
655.80 0.5227093
655.90 0.5225038
656.00 0.5222985
656.10 0.5220932
656.20 0.521888
656.30 0.5216829
656.40 0.521478
656.50 0.5212731
656.60 0.5210684
656.70 0.5208637
656.80 0.5206591
656.90 0.5204547
657.00 0.5202503
657.10 0.520046
657.20 0.5198419
657.30 0.5196378
657.40 0.5194338
657.50 0.51923
657.60 0.5190262
657.70 0.5188226
657.80 0.518551
657.90 0.5183316
658.00 0.5181215
658.10 0.5179115
658.20 0.5177016
658.30 0.5174918
658.40 0.5172822
658.50 0.5170726
658.60 0.5168631
658.70 0.5166537
658.80 0.5164445
658.90 0.5162353
659.00 0.5160263
659.10 0.5158383
659.20 0.5156818
659.30 0.5154669
659.40 0.5152521
659.50 0.5150375
659.60 0.5148229
659.70 0.5146085
659.80 0.5143941
659.90 0.5141799
660.00 0.5139658
660.10 0.5137517
660.20 0.5135378
660.30 0.513324
660.40 0.5131143
660.50 0.5129054
660.60 0.5126966
660.70 0.5124879
660.80 0.5122793
660.90 0.5120724
661.00 0.5118656
661.10 0.5116589
661.20 0.5114523
661.30 0.5112458
661.40 0.5110394
661.50 0.5108331
661.60 0.5106269
661.70 0.5104208
661.80 0.5102148
661.90 0.5100104
662.00 0.5098062
662.10 0.509602
662.20 0.5093979
662.30 0.5091939
662.40 0.5090327
662.50 0.5088145
662.60 0.5085964
662.70 0.5083784
662.80 0.5081605
662.90 0.5080072
663.00 0.507854
663.10 0.507572
663.20 0.5074189
663.30 0.5071371
663.40 0.5069843
663.50 0.5067671
663.60 0.50655
663.70 0.5063376
663.80 0.5061252
663.90 0.5059638
664.00 0.5058114
664.10 0.5055949
664.20 0.5053784
664.30 0.5051621
664.40 0.5049458
664.50 0.5047297
664.60 0.5045137
664.70 0.5043147
664.80 0.5041158
664.90 0.503917
665.00 0.5037183
665.10 0.5035197
665.20 0.5033212
665.30 0.5031228
665.40 0.5029245
665.50 0.5027075
665.60 0.5024873
665.70 0.5023118
665.80 0.5021107
665.90 0.5019097
666.00 0.5017088
666.10 0.5015081
666.20 0.5013074
666.30 0.5011068
666.40 0.5009063
666.50 0.5007124
666.60 0.5005197
666.70 0.500327
666.80 0.5001345
666.90 0.4999421
667.00 0.4997497
667.10 0.499535
667.20 0.4993165
667.30 0.4991077
667.40 0.498899
667.50 0.4986866
667.60 0.4984736
667.70 0.4983148
667.80 0.4980385
667.90 0.4978894
668.00 0.4977403
668.10 0.4975374
668.20 0.497325
668.30 0.4971128
668.40 0.4969006
668.50 0.4966886
668.60 0.4964767
668.70 0.4963187
668.80 0.4961211
668.90 0.4959236
669.00 0.4957262
669.10 0.4955288
669.20 0.4953316
669.30 0.4951332
669.40 0.4949347
669.50 0.4947363
669.60 0.494538
669.70 0.4943398
669.80 0.4941417
669.90 0.4939437
670.00 0.4937458
670.10 0.4935479
670.20 0.4933502
670.30 0.4931513
670.40 0.4929522
670.50 0.4927532
670.60 0.4925543
670.70 0.4923554
670.80 0.4921522
670.90 0.491949
671.00 0.491746
671.10 0.491543
671.20 0.4913402
671.30 0.4911374
671.40 0.4909348
671.50 0.4907322
671.60 0.4905298
671.70 0.4903274
671.80 0.4901251
671.90 0.4899275
672.00 0.4897307
672.10 0.4895339
672.20 0.4893373
672.30 0.4891408
672.40 0.4889526
672.50 0.4887651
672.60 0.4885777
672.70 0.4883904
672.80 0.4882032
672.90 0.4880161
673.00 0.487829
673.10 0.4876421
673.20 0.4874552
673.30 0.4872017
673.40 0.4869983
673.50 0.4868037
673.60 0.4866092
673.70 0.4864148
673.80 0.4862206
673.90 0.4860264
674.00 0.4858323
674.10 0.4856383
674.20 0.4854443
674.30 0.4852505
674.40 0.4850568
674.50 0.4848632
674.60 0.4846696
674.70 0.4844762
674.80 0.4842828
674.90 0.4840896
675.00 0.4838964
675.10 0.4837033
675.20 0.4835104
675.30 0.4833175
675.40 0.4831247
675.50 0.482932
675.60 0.4827394
675.70 0.4825469
675.80 0.4823544
675.90 0.4821621
676.00 0.4819699
676.10 0.4817777
676.20 0.4815857
676.30 0.4813937
676.40 0.4812019
676.50 0.4810101
676.60 0.4808184
676.70 0.4806268
676.80 0.4804353
676.90 0.4802439
677.00 0.4800526
677.10 0.4798614
677.20 0.4796702
677.30 0.4794792
677.40 0.4792883
677.50 0.4790974
677.60 0.4789067
677.70 0.478716
677.80 0.4785254
677.90 0.4783337
678.00 0.4781419
678.10 0.4779502
678.20 0.4777586
678.30 0.477567
678.40 0.4773756
678.50 0.4771842
678.60 0.476993
678.70 0.4768018
678.80 0.4766107
678.90 0.4764197
679.00 0.4762288
679.10 0.4760392
679.20 0.4758502
679.30 0.4756613
679.40 0.4754725
679.50 0.4752837
679.60 0.4750951
679.70 0.4749066
679.80 0.4747181
679.90 0.4745297
680.00 0.4743414
680.10 0.4741532
680.20 0.4739651
680.30 0.4737771
680.40 0.4735892
680.50 0.4734014
680.60 0.4732136
680.70 0.473026
680.80 0.4728384
680.90 0.472651
681.00 0.4724636
681.10 0.4722763
681.20 0.4720891
681.30 0.471902
681.40 0.4717149
681.50 0.471528
681.60 0.4713412
681.70 0.4711544
681.80 0.4709677
681.90 0.4707812
682.00 0.4705947
682.10 0.4704083
682.20 0.470222
682.30 0.4700357
682.40 0.4698496
682.50 0.4696636
682.60 0.4694776
682.70 0.4692918
682.80 0.469106
682.90 0.4689203
683.00 0.4687347
683.10 0.4685492
683.20 0.4683638
683.30 0.4681784
683.40 0.4679932
683.50 0.467808
683.60 0.467623
683.70 0.467438
683.80 0.4672531
683.90 0.4670683
684.00 0.4668836
684.10 0.4666989
684.20 0.4665144
684.30 0.4663299
684.40 0.4661456
684.50 0.4659613
684.60 0.4657771
684.70 0.465593
684.80 0.465409
684.90 0.4652251
685.00 0.4650412
685.10 0.4648575
685.20 0.4646738
685.30 0.4644902
685.40 0.4643068
685.50 0.4641234
685.60 0.46394
685.70 0.4637568
685.80 0.4635737
685.90 0.4633896
686.00 0.4632054
686.10 0.4630212
686.20 0.4628372
686.30 0.4626532
686.40 0.4624693
686.50 0.4622855
686.60 0.4621018
686.70 0.4619182
686.80 0.4617346
686.90 0.4615512
687.00 0.4613678
687.10 0.4611845
687.20 0.4610013
687.30 0.4608182
687.40 0.4606352
687.50 0.4604523
687.60 0.4602694
687.70 0.4600867
687.80 0.459904
687.90 0.4597214
688.00 0.4595389
688.10 0.4593565
688.20 0.4591742
688.30 0.458992
688.40 0.4588098
688.50 0.4586278
688.60 0.4584458
688.70 0.4582639
688.80 0.4580821
688.90 0.4579004
689.00 0.4577188
689.10 0.4575372
689.20 0.4573558
689.30 0.4571744
689.40 0.4569931
689.50 0.4568119
689.60 0.4566308
689.70 0.4564498
689.80 0.4562688
689.90 0.456088
690.00 0.4559072
690.10 0.4557265
690.20 0.4555459
690.30 0.4553654
690.40 0.455185
690.50 0.4550046
690.60 0.4548244
690.70 0.4546442
690.80 0.4544641
690.90 0.4542841
691.00 0.4541042
691.10 0.4539243
691.20 0.4537446
691.30 0.4535649
691.40 0.4533854
691.50 0.4532059
691.60 0.4530265
691.70 0.4528471
691.80 0.4526679
691.90 0.4524887
692.00 0.4523097
692.10 0.4521307
692.20 0.4519518
692.30 0.451773
692.40 0.4515942
692.50 0.4514156
692.60 0.451237
692.70 0.4510584
692.80 0.450879
692.90 0.4506997
693.00 0.4505204
693.10 0.4503413
693.20 0.4501623
693.30 0.4499833
693.40 0.4498044
693.50 0.4496256
693.60 0.4494469
693.70 0.4492683
693.80 0.4490897
693.90 0.4489113
694.00 0.4487329
694.10 0.4485546
694.20 0.4483764
694.30 0.4481983
694.40 0.4480202
694.50 0.4478423
694.60 0.4476644
694.70 0.4474866
694.80 0.4473089
694.90 0.4471313
695.00 0.4469537
695.10 0.4467763
695.20 0.4465989
695.30 0.4464216
695.40 0.4462444
695.50 0.4460673
695.60 0.4458903
695.70 0.4457133
695.80 0.4455365
695.90 0.4453597
696.00 0.445183
696.10 0.4450063
696.20 0.4448298
696.30 0.4446534
696.40 0.444477
696.50 0.4443007
696.60 0.4441261
696.70 0.4439519
696.80 0.4437778
696.90 0.4436038
697.00 0.4434299
697.10 0.443256
697.20 0.4430822
697.30 0.4429085
697.40 0.4427349
697.50 0.4425614
697.60 0.442388
697.70 0.4422146
697.80 0.4420413
697.90 0.4418681
698.00 0.441695
698.10 0.441522
698.20 0.441349
698.30 0.4411761
698.40 0.4410034
698.50 0.4408306
698.60 0.440658
698.70 0.4404855
698.80 0.440313
698.90 0.4401406
699.00 0.4399683
699.10 0.4397855
699.20 0.4396004
699.30 0.4394154
699.40 0.4392304
699.50 0.4390456
699.60 0.4388608
699.70 0.4386935
699.80 0.4385273
699.90 0.4383611
700.00 0.4381949
700.10 0.4380289
700.20 0.4378629
700.30 0.437697
700.40 0.4375312
700.50 0.4373655
700.60 0.4371998
700.70 0.4370342
700.80 0.4368687
700.90 0.4367033
701.00 0.4365379
701.10 0.4363621
701.20 0.4361839
701.30 0.4360057
701.40 0.4358276
701.50 0.4356497
701.60 0.4354718
701.70 0.435294
701.80 0.4351162
701.90 0.4349386
702.00 0.434761
702.10 0.4345836
702.20 0.4344062
702.30 0.4342289
702.40 0.4340516
702.50 0.4338745
702.60 0.433706
702.70 0.4335395
702.80 0.4333731
702.90 0.4332068
703.00 0.4330406
703.10 0.4328744
703.20 0.4327083
703.30 0.4325424
703.40 0.4323764
703.50 0.4322106
703.60 0.4320448
703.70 0.4318791
703.80 0.4317135
703.90 0.431548
704.00 0.4313825
704.10 0.4312171
704.20 0.4310495
704.30 0.4308814
704.40 0.4307134
704.50 0.4305455
704.60 0.4303776
704.70 0.4302099
704.80 0.4300422
704.90 0.4298746
705.00 0.429707
705.10 0.4295395
705.20 0.4293629
705.30 0.4291842
705.40 0.4290056
705.50 0.4288271
705.60 0.4286487
705.70 0.4284703
705.80 0.4283151
705.90 0.4281653
706.00 0.4280156
706.10 0.427866
706.20 0.4276934
706.30 0.4275155
706.40 0.4273808
706.50 0.4271492
706.60 0.4270283
706.70 0.426794
706.80 0.4266273
706.90 0.4264499
707.00 0.4262956
707.10 0.4261467
707.20 0.4259978
707.30 0.4258491
707.40 0.4256774
707.50 0.4255005
707.60 0.4253237
707.70 0.4251469
707.80 0.4249703
707.90 0.4247937
708.00 0.4246263
708.10 0.4244612
708.20 0.4242962
708.30 0.4241312
708.40 0.4239663
708.50 0.4238015
708.60 0.4236367
708.70 0.423472
708.80 0.4233075
708.90 0.4231429
709.00 0.4229808
709.10 0.4228192
709.20 0.4226578
709.30 0.4224964
709.40 0.422335
709.50 0.4221738
709.60 0.4220126
709.70 0.4218515
709.80 0.4216905
709.90 0.4215295
710.00 0.4213686
710.10 0.4212078
710.20 0.4210471
710.30 0.4208864
710.40 0.4207259
710.50 0.4205653
710.60 0.4203966
710.70 0.4202259
710.80 0.4200554
710.90 0.4198849
711.00 0.4197145
711.10 0.4195441
711.20 0.4193739
711.30 0.4192037
711.40 0.4190336
711.50 0.4188636
711.60 0.4186937
711.70 0.4185238
711.80 0.4183541
711.90 0.4181844
712.00 0.4180147
712.10 0.4178545
712.20 0.4176965
712.30 0.4175386
712.40 0.4173807
712.50 0.4172229
712.60 0.4170652
712.70 0.4169076
712.80 0.41675
712.90 0.4165925
713.00 0.4164351
713.10 0.4162777
713.20 0.4161204
713.30 0.4159632
713.40 0.4158061
713.50 0.415649
713.60 0.415492
713.70 0.4153276
713.80 0.4151481
713.90 0.4149686
714.00 0.4147892
714.10 0.4146251
714.20 0.4144645
714.30 0.4143041
714.40 0.4141437
714.50 0.4139834
714.60 0.4138231
714.70 0.413663
714.80 0.4135029
714.90 0.4133429
715.00 0.4131829
715.10 0.4130231
715.20 0.4128633
715.30 0.4127035
715.40 0.4125439
715.50 0.4123843
715.60 0.4122248
715.70 0.4120654
715.80 0.411906
715.90 0.4117467
716.00 0.4115875
716.10 0.4114284
716.20 0.4112693
716.30 0.4111103
716.40 0.4109514
716.50 0.4107925
716.60 0.4106308
716.70 0.4104684
716.80 0.4103061
716.90 0.4101439
717.00 0.4099818
717.10 0.4098197
717.20 0.4096577
717.30 0.4094958
717.40 0.409334
717.50 0.4091722
717.60 0.4090105
717.70 0.4088489
717.80 0.4086874
717.90 0.4085259
718.00 0.4083645
718.10 0.4082032
718.20 0.4080443
718.30 0.4078868
718.40 0.4077293
718.50 0.4075719
718.60 0.4074146
718.70 0.4072574
718.80 0.4071002
718.90 0.4069431
719.00 0.4067861
719.10 0.4066291
719.20 0.4064722
719.30 0.4063154
719.40 0.4061587
719.50 0.406002
719.60 0.4058454
719.70 0.4056889
719.80 0.4055324
719.90 0.405376
720.00 0.4052197
720.10 0.4050634
720.20 0.4049073
720.30 0.4047512
720.40 0.4045951
720.50 0.4044392
720.60 0.4042833
720.70 0.4041139
720.80 0.4039372
720.90 0.4037826
721.00 0.4036289
721.10 0.4034753
721.20 0.4033218
721.30 0.4031683
721.40 0.4030149
721.50 0.4028616
721.60 0.4027084
721.70 0.4025552
721.80 0.4024021
721.90 0.402249
722.00 0.4020961
722.10 0.4019432
722.20 0.4017903
722.30 0.4016376
722.40 0.4014849
722.50 0.4013323
722.60 0.4011797
722.70 0.401026
722.80 0.4008716
722.90 0.4007174
723.00 0.4005632
723.10 0.400409
723.20 0.400255
723.30 0.400101
723.40 0.3999471
723.50 0.3997932
723.60 0.3996394
723.70 0.3994857
723.80 0.3993321
723.90 0.3991785
724.00 0.399025
724.10 0.3988716
724.20 0.3987156
724.30 0.3985583
724.40 0.398401
724.50 0.3982438
724.60 0.3980867
724.70 0.3979296
724.80 0.3977726
724.90 0.3976157
725.00 0.3974589
725.10 0.3973021
725.20 0.3971454
725.30 0.3969888
725.40 0.3968322
725.50 0.3966758
725.60 0.3965194
725.70 0.396363
725.80 0.3962094
725.90 0.3960572
726.00 0.3959051
726.10 0.3957531
726.20 0.3956011
726.30 0.3954492
726.40 0.3952974
726.50 0.3951456
726.60 0.394994
726.70 0.3948423
726.80 0.3946954
726.90 0.3945511
727.00 0.3944068
727.10 0.3942626
727.20 0.3941185
727.30 0.3939744
727.40 0.3938188
727.50 0.393657
727.60 0.3934953
727.70 0.3933337
727.80 0.3931721
727.90 0.3930106
728.00 0.3928839
728.10 0.3926691
728.20 0.3925613
728.30 0.3924402
728.40 0.392239
728.50 0.3921313
728.60 0.391989
728.70 0.391828
728.80 0.3916672
728.90 0.3915064
729.00 0.3913457
729.10 0.3911851
729.20 0.3910245
729.30 0.390864
729.40 0.3907036
729.50 0.3905433
729.60 0.3903899
729.70 0.3902404
729.80 0.3900909
729.90 0.3899414
730.00 0.3897921
730.10 0.3896428
730.20 0.3894936
730.30 0.3893444
730.40 0.3891953
730.50 0.3890463
730.60 0.3888991
730.70 0.3887529
730.80 0.3886067
730.90 0.3884606
731.00 0.3883146
731.10 0.3881686
731.20 0.3880227
731.30 0.3878768
731.40 0.3877311
731.50 0.3875853
731.60 0.3874397
731.70 0.3872941
731.80 0.3871486
731.90 0.3870032
732.00 0.3868578
732.10 0.3867125
732.20 0.3865655
732.30 0.3864177
732.40 0.3862699
732.50 0.3861222
732.60 0.3859746
732.70 0.385827
732.80 0.3856795
732.90 0.3855321
733.00 0.3853847
733.10 0.3852374
733.20 0.3850902
733.30 0.384943
733.40 0.3847959
733.50 0.3846488
733.60 0.3845019
733.70 0.3843534
733.80 0.3842042
733.90 0.3840551
734.00 0.383906
734.10 0.383757
734.20 0.3836081
734.30 0.3834592
734.40 0.3833104
734.50 0.3831617
734.60 0.383013
734.70 0.3828644
734.80 0.3827159
734.90 0.3825674
735.00 0.382419
735.10 0.3822707
735.20 0.3821224
735.30 0.3819729
735.40 0.3818079
735.50 0.381643
735.60 0.3814782
735.70 0.3813259
735.80 0.3811804
735.90 0.381035
736.00 0.3808896
736.10 0.3807443
736.20 0.3805991
736.30 0.3804539
736.40 0.3803088
736.50 0.3801637
736.60 0.3800188
736.70 0.3798738
736.80 0.379729
736.90 0.3795842
737.00 0.3794395
737.10 0.3792948
737.20 0.3791502
737.30 0.3790057
737.40 0.3788612
737.50 0.3787168
737.60 0.3785725
737.70 0.3784282
737.80 0.378284
737.90 0.3781398
738.00 0.3779957
738.10 0.3778517
738.20 0.3777078
738.30 0.377564
738.40 0.3774203
738.50 0.3772766
738.60 0.377133
738.70 0.3769895
738.80 0.376846
738.90 0.3767026
739.00 0.3765592
739.10 0.376416
739.20 0.3762727
739.30 0.3761296
739.40 0.3759865
739.50 0.3758435
739.60 0.3757005
739.70 0.3755576
739.80 0.3754147
739.90 0.375272
740.00 0.3751293
740.10 0.3749866
740.20 0.374844
740.30 0.3747015
740.40 0.374559
740.50 0.3744166
740.60 0.3742743
740.70 0.374132
740.80 0.3739898
740.90 0.3738477
741.00 0.3737056
741.10 0.3735636
741.20 0.3734216
741.30 0.3732797
741.40 0.3731379
741.50 0.3729961
741.60 0.3728544
741.70 0.3727128
741.80 0.3725712
741.90 0.3724297
742.00 0.3722883
742.10 0.3721469
742.20 0.3720055
742.30 0.3718643
742.40 0.3717231
742.50 0.3715819
742.60 0.3714409
742.70 0.3712951
742.80 0.3711455
742.90 0.370996
743.00 0.3708466
743.10 0.3706972
743.20 0.3705479
743.30 0.3703987
743.40 0.3702495
743.50 0.3701004
743.60 0.3699514
743.70 0.3698039
743.80 0.3696629
743.90 0.3695218
744.00 0.3693809
744.10 0.36924
744.20 0.3690991
744.30 0.3689584
744.40 0.3688176
744.50 0.368677
744.60 0.3685364
744.70 0.3683959
744.80 0.3682554
744.90 0.368115
745.00 0.3679747
745.10 0.3678344
745.20 0.3676942
745.30 0.367554
745.40 0.3674139
745.50 0.3672739
745.60 0.3671339
745.70 0.366994
745.80 0.3668542
745.90 0.3667144
746.00 0.3665747
746.10 0.366435
746.20 0.3662954
746.30 0.3661559
746.40 0.3660164
746.50 0.365877
746.60 0.3657377
746.70 0.3655984
746.80 0.3654591
746.90 0.36532
747.00 0.3651809
747.10 0.3650418
747.20 0.3649028
747.30 0.3647639
747.40 0.3646251
747.50 0.3644863
747.60 0.3643475
747.70 0.3642089
747.80 0.3640702
747.90 0.3639317
748.00 0.3637932
748.10 0.3636548
748.20 0.3635164
748.30 0.3633781
748.40 0.3632398
748.50 0.3631016
748.60 0.3629635
748.70 0.3628255
748.80 0.3626875
748.90 0.3625495
749.00 0.3624116
749.10 0.3622738
749.20 0.362136
749.30 0.3619983
749.40 0.3618607
749.50 0.3617231
749.60 0.3615856
749.70 0.3614481
749.80 0.3613107
749.90 0.3611734
750.00 0.3610361
750.10 0.3608991
750.20 0.3607626
750.30 0.3606262
750.40 0.3604898
750.50 0.3603535
750.60 0.3602173
750.70 0.3600811
750.80 0.359945
750.90 0.359809
751.00 0.359673
751.10 0.359537
751.20 0.3594011
751.30 0.3592653
751.40 0.3591296
751.50 0.3589939
751.60 0.3588582
751.70 0.3587226
751.80 0.3585871
751.90 0.3584516
752.00 0.3583162
752.10 0.3581809
752.20 0.3580456
752.30 0.3579104
752.40 0.3577752
752.50 0.3576401
752.60 0.3575051
752.70 0.3573701
752.80 0.3572351
752.90 0.3571003
753.00 0.3569655
753.10 0.3568307
753.20 0.356696
753.30 0.3565614
753.40 0.3564268
753.50 0.3562923
753.60 0.3561578
753.70 0.3560234
753.80 0.3558891
753.90 0.3557527
754.00 0.3556159
754.10 0.355479
754.20 0.3553423
754.30 0.3552056
754.40 0.3550689
754.50 0.3549324
754.60 0.3547958
754.70 0.3546594
754.80 0.354523
754.90 0.3543866
755.00 0.3542504
755.10 0.3541141
755.20 0.353978
755.30 0.3538419
755.40 0.3537058
755.50 0.3535699
755.60 0.3534339
755.70 0.3532981
755.80 0.3531623
755.90 0.3530265
756.00 0.3528908
756.10 0.3527552
756.20 0.3526196
756.30 0.3524841
756.40 0.3523487
756.50 0.3522133
756.60 0.352078
756.70 0.3519427
756.80 0.3518075
756.90 0.3516723
757.00 0.3515373
757.10 0.3514022
757.20 0.3512672
757.30 0.3511323
757.40 0.3509975
757.50 0.3508627
757.60 0.3507288
757.70 0.3505971
757.80 0.3504655
757.90 0.350334
758.00 0.3502025
758.10 0.3500711
758.20 0.3499397
758.30 0.3498084
758.40 0.3496772
758.50 0.349546
758.60 0.3494148
758.70 0.3492838
758.80 0.3491527
758.90 0.3490218
759.00 0.3488909
759.10 0.34876
759.20 0.3486292
759.30 0.3484985
759.40 0.3483678
759.50 0.3482372
759.60 0.3481066
759.70 0.3479761
759.80 0.3478456
759.90 0.3477152
760.00 0.3475849
760.10 0.3474546
760.20 0.3473244
760.30 0.3471942
760.40 0.3470641
760.50 0.346934
760.60 0.346804
760.70 0.3466741
760.80 0.3465442
760.90 0.3464144
761.00 0.3462846
761.10 0.3461549
761.20 0.3460252
761.30 0.3458956
761.40 0.345765
761.50 0.3456329
761.60 0.3455009
761.70 0.3453689
761.80 0.345237
761.90 0.3451052
762.00 0.3449734
762.10 0.3448417
762.20 0.34471
762.30 0.3445784
762.40 0.3444468
762.50 0.3443153
762.60 0.3441839
762.70 0.3440525
762.80 0.3439212
762.90 0.3437899
763.00 0.3436587
763.10 0.3435275
763.20 0.3433964
763.30 0.3432654
763.40 0.3431344
763.50 0.3430034
763.60 0.3428726
763.70 0.3427417
763.80 0.342611
763.90 0.3424803
764.00 0.3423496
764.10 0.342219
764.20 0.3420885
764.30 0.341958
764.40 0.3418276
764.50 0.3416972
764.60 0.3415669
764.70 0.3414367
764.80 0.3413065
764.90 0.3411763
765.00 0.3410462
765.10 0.3409162
765.20 0.3407871
765.30 0.3406589
765.40 0.3405307
765.50 0.3404025
765.60 0.3402744
765.70 0.3401464
765.80 0.3400185
765.90 0.3398905
766.00 0.3397627
766.10 0.3396349
766.20 0.3395071
766.30 0.3393794
766.40 0.3392518
766.50 0.3391242
766.60 0.3389967
766.70 0.3388692
766.80 0.3387418
766.90 0.3386144
767.00 0.3384871
767.10 0.3383599
767.20 0.3382327
767.30 0.3381055
767.40 0.3379784
767.50 0.3378514
767.60 0.3377244
767.70 0.3375975
767.80 0.3374706
767.90 0.3373438
768.00 0.3372171
768.10 0.3370904
768.20 0.3369637
768.30 0.3368371
768.40 0.3367106
768.50 0.3365841
768.60 0.3364576
768.70 0.3363313
768.80 0.3362049
768.90 0.3360787
769.00 0.3359524
769.10 0.3358263
769.20 0.3357002
769.30 0.3355741
769.40 0.3354481
769.50 0.3353222
769.60 0.3351963
769.70 0.3350705
769.80 0.3349447
769.90 0.3348189
770.00 0.3346933
770.10 0.3345676
770.20 0.3344421
770.30 0.3343166
770.40 0.3341911
770.50 0.3340657
770.60 0.3339403
770.70 0.333815
770.80 0.3336898
770.90 0.3335646
771.00 0.3334395
771.10 0.3333144
771.20 0.3331894
771.30 0.3330644
771.40 0.3329395
771.50 0.3328146
771.60 0.3326898
771.70 0.332565
771.80 0.3324403
771.90 0.3323157
772.00 0.3321911
772.10 0.3320665
772.20 0.331942
772.30 0.3318176
772.40 0.3316932
772.50 0.3315689
772.60 0.3314446
772.70 0.3313204
772.80 0.3311962
772.90 0.3310724
773.00 0.3309487
773.10 0.3308251
773.20 0.3307015
773.30 0.330578
773.40 0.3304545
773.50 0.3303311
773.60 0.3302077
773.70 0.3300844
773.80 0.3299611
773.90 0.3298379
774.00 0.3297147
774.10 0.3295916
774.20 0.3294686
774.30 0.3293456
774.40 0.3292226
774.50 0.3290997
774.60 0.3289769
774.70 0.3288541
774.80 0.3287313
774.90 0.3286086
775.00 0.328486
775.10 0.3283634
775.20 0.3282409
775.30 0.3281184
775.40 0.327996
775.50 0.3278736
775.60 0.3277513
775.70 0.327629
775.80 0.3275068
775.90 0.3273846
776.00 0.3272625
776.10 0.3271404
776.20 0.3270184
776.30 0.3268965
776.40 0.3267746
776.50 0.3266527
776.60 0.3265309
776.70 0.3264092
776.80 0.3262875
776.90 0.3261658
777.00 0.3260442
777.10 0.3259227
777.20 0.3258012
777.30 0.3256797
777.40 0.3255583
777.50 0.325437
777.60 0.3253157
777.70 0.3251945
777.80 0.3250733
777.90 0.3249522
778.00 0.3248311
778.10 0.3247101
778.20 0.3245891
778.30 0.3244682
778.40 0.3243473
778.50 0.3242265
778.60 0.3241057
778.70 0.323985
778.80 0.3238643
778.90 0.3237437
779.00 0.3236231
779.10 0.3235026
779.20 0.3233821
779.30 0.3232617
779.40 0.3231414
779.50 0.3230211
779.60 0.3229008
779.70 0.3227806
779.80 0.3226604
779.90 0.3225403
780.00 0.3224203
780.10 0.3223003
780.20 0.3221803
780.30 0.3220604
780.40 0.3219406
780.50 0.3218208
780.60 0.3216997
780.70 0.3215782
780.80 0.3214568
780.90 0.3213354
781.00 0.321214
781.10 0.3210927
781.20 0.3209715
781.30 0.3208503
781.40 0.3207291
781.50 0.320608
781.60 0.320487
781.70 0.320366
781.80 0.3202451
781.90 0.3201242
782.00 0.3200033
782.10 0.3198825
782.20 0.3197618
782.30 0.3196411
782.40 0.3195205
782.50 0.3193999
782.60 0.3192794
782.70 0.3191589
782.80 0.3190385
782.90 0.3189181
783.00 0.3187978
783.10 0.3186775
783.20 0.3185573
783.30 0.3184371
783.40 0.318317
783.50 0.3181969
783.60 0.3180769
783.70 0.317957
783.80 0.317837
783.90 0.3177172
784.00 0.3175974
784.10 0.3174776
784.20 0.3173579
784.30 0.3172382
784.40 0.3171186
784.50 0.316999
784.60 0.3168801
784.70 0.3167627
784.80 0.3166453
784.90 0.316528
785.00 0.3164107
785.10 0.3162934
785.20 0.3161763
785.30 0.3160591
785.40 0.315942
785.50 0.315825
785.60 0.315708
785.70 0.315591
785.80 0.3154741
785.90 0.3153573
786.00 0.3152405
786.10 0.3151238
786.20 0.3150071
786.30 0.3148904
786.40 0.3147738
786.50 0.3146573
786.60 0.3145408
786.70 0.3144243
786.80 0.3143079
786.90 0.3141915
787.00 0.3140752
787.10 0.313959
787.20 0.3138428
787.30 0.3137266
787.40 0.3136105
787.50 0.3134944
787.60 0.3133784
787.70 0.3132625
787.80 0.3131466
787.90 0.3130307
788.00 0.3129149
788.10 0.3127991
788.20 0.3126834
788.30 0.3125677
788.40 0.3124516
788.50 0.3123354
788.60 0.3122192
788.70 0.3121031
788.80 0.311987
788.90 0.311871
789.00 0.311755
789.10 0.311639
789.20 0.3115231
789.30 0.3114073
789.40 0.3112915
789.50 0.3111757
789.60 0.31106
789.70 0.3109444
789.80 0.3108288
789.90 0.3107132
790.00 0.3105977
790.10 0.3104823
790.20 0.3103669
790.30 0.3102515
790.40 0.3101362
790.50 0.3100209
790.60 0.3099057
790.70 0.3097905
790.80 0.3096754
790.90 0.3095604
791.00 0.3094453
791.10 0.3093304
791.20 0.3092154
791.30 0.3091006
791.40 0.3089857
791.50 0.308871
791.60 0.3087562
791.70 0.3086415
791.80 0.3085269
791.90 0.3084123
792.00 0.3082978
792.10 0.3081833
792.20 0.3080688
792.30 0.307955
792.40 0.307843
792.50 0.3077309
792.60 0.307619
792.70 0.307507
792.80 0.3073952
792.90 0.3072833
793.00 0.3071715
793.10 0.3070598
793.20 0.3069481
793.30 0.3068364
793.40 0.3067248
793.50 0.3066133
793.60 0.3065018
793.70 0.3063903
793.80 0.3062789
793.90 0.3061675
794.00 0.3060562
794.10 0.3059449
794.20 0.3058337
794.30 0.3057225
794.40 0.3056114
794.50 0.3055003
794.60 0.3053893
794.70 0.3052783
794.80 0.3051673
794.90 0.3050564
795.00 0.3049455
795.10 0.3048347
795.20 0.304724
795.30 0.3046132
795.40 0.3045026
795.50 0.3043919
795.60 0.3042813
795.70 0.3041708
795.80 0.3040603
795.90 0.3039499
796.00 0.3038395
796.10 0.3037291
796.20 0.3036188
796.30 0.303507
796.40 0.3033948
796.50 0.3032828
796.60 0.3031707
796.70 0.3030588
796.80 0.3029468
796.90 0.3028349
797.00 0.3027231
797.10 0.3026113
797.20 0.3024996
797.30 0.3023879
797.40 0.3022762
797.50 0.3021646
797.60 0.3020531
797.70 0.3019415
797.80 0.3018301
797.90 0.3017187
798.00 0.3016073
798.10 0.301496
798.20 0.3013847
798.30 0.3012734
798.40 0.3011622
798.50 0.3010511
798.60 0.30094
798.70 0.300829
798.80 0.300718
798.90 0.300607
799.00 0.3004961
799.10 0.3003852
799.20 0.3002744
799.30 0.3001636
799.40 0.3000529
799.50 0.2999422
799.60 0.2998316
799.70 0.299721
799.80 0.2996105
799.90 0.2995
800.00 0.2993895
800.10 0.2992791
800.20 0.2991687
800.30 0.2990584
800.40 0.2989482
800.50 0.2988379
800.60 0.2987278
800.70 0.2986176
800.80 0.2985075
800.90 0.2983975
801.00 0.2982875
801.10 0.2981776
801.20 0.2980677
801.30 0.2979578
801.40 0.297848
801.50 0.2977382
801.60 0.2976285
801.70 0.2975188
801.80 0.2974092
801.90 0.2972996
802.00 0.2971901
802.10 0.2970806
802.20 0.2969711
802.30 0.2968617
802.40 0.2967524
802.50 0.2966431
802.60 0.2965338
802.70 0.2964246
802.80 0.2963154
802.90 0.2962063
803.00 0.2960972
803.10 0.2959881
803.20 0.2958792
803.30 0.2957702
803.40 0.2956613
803.50 0.2955524
803.60 0.2954436
803.70 0.2953348
803.80 0.2952261
803.90 0.2951174
804.00 0.2950088
804.10 0.2949002
804.20 0.2947917
804.30 0.2946836
804.40 0.2945755
804.50 0.2944674
804.60 0.2943594
804.70 0.2942514
804.80 0.2941435
804.90 0.2940356
805.00 0.2939278
805.10 0.29382
805.20 0.2937122
805.30 0.2936045
805.40 0.2934969
805.50 0.2933893
805.60 0.2932817
805.70 0.2931742
805.80 0.2930667
805.90 0.2929592
806.00 0.2928519
806.10 0.2927445
806.20 0.2926372
806.30 0.2925299
806.40 0.2924227
806.50 0.2923155
806.60 0.2922084
806.70 0.2921013
806.80 0.2919943
806.90 0.2918873
807.00 0.2917803
807.10 0.2916734
807.20 0.2915666
807.30 0.2914597
807.40 0.291353
807.50 0.2912462
807.60 0.2911395
807.70 0.2910329
807.80 0.2909263
807.90 0.2908197
808.00 0.2907132
808.10 0.2906068
808.20 0.2905003
808.30 0.2903939
808.40 0.2902876
808.50 0.2901813
808.60 0.2900751
808.70 0.2899689
808.80 0.2898627
808.90 0.2897566
809.00 0.2896505
809.10 0.2895445
809.20 0.2894385
809.30 0.2893325
809.40 0.2892266
809.50 0.2891208
809.60 0.289015
809.70 0.2889092
809.80 0.2888035
809.90 0.2886978
810.00 0.2885921
810.10 0.2884865
810.20 0.288381
810.30 0.2882755
810.40 0.28817
810.50 0.2880646
810.60 0.2879592
810.70 0.2878538
810.80 0.2877486
810.90 0.2876433
811.00 0.2875381
811.10 0.2874329
811.20 0.2873278
811.30 0.2872227
811.40 0.2871177
811.50 0.2870127
811.60 0.2869077
811.70 0.2868028
811.80 0.286698
811.90 0.2865931
812.00 0.2864884
812.10 0.2863836
812.20 0.2862789
812.30 0.2861742
812.40 0.2860695
812.50 0.2859649
812.60 0.2858603
812.70 0.2857557
812.80 0.2856512
812.90 0.2855467
813.00 0.2854423
813.10 0.2853379
813.20 0.2852336
813.30 0.2851293
813.40 0.285025
813.50 0.2849208
813.60 0.2848166
813.70 0.2847125
813.80 0.2846084
813.90 0.2845043
814.00 0.2844003
814.10 0.2842964
814.20 0.2841925
814.30 0.2840886
814.40 0.2839847
814.50 0.2838809
814.60 0.2837772
814.70 0.2836735
814.80 0.2835698
814.90 0.2834662
815.00 0.2833626
815.10 0.2832591
815.20 0.2831556
815.30 0.2830521
815.40 0.2829487
815.50 0.2828453
815.60 0.282742
815.70 0.2826387
815.80 0.2825355
815.90 0.2824323
816.00 0.2823291
816.10 0.282226
816.20 0.2821229
816.30 0.2820199
816.40 0.2819169
816.50 0.281814
816.60 0.2817111
816.70 0.2816082
816.80 0.2815054
816.90 0.2814026
817.00 0.2812998
817.10 0.2811971
817.20 0.2810945
817.30 0.2809919
817.40 0.2808893
817.50 0.2807868
817.60 0.2806843
817.70 0.2805818
817.80 0.2804794
817.90 0.2803771
818.00 0.2802748
818.10 0.2801725
818.20 0.2800702
818.30 0.279968
818.40 0.2798659
818.50 0.2797638
818.60 0.2796617
818.70 0.2795597
818.80 0.2794577
818.90 0.2793557
819.00 0.2792538
819.10 0.279152
819.20 0.2790501
819.30 0.2789507
819.40 0.2788529
819.50 0.2787551
819.60 0.2786573
819.70 0.2785596
819.80 0.2784619
819.90 0.2783643
820.00 0.2782667
820.10 0.2781339
820.20 0.2780198
820.30 0.277952
820.40 0.2778644
820.50 0.2777624
820.60 0.2776605
820.70 0.2775586
820.80 0.2774567
820.90 0.2773549
821.00 0.2772532
821.10 0.2771514
821.20 0.2770497
821.30 0.2769481
821.40 0.2768465
821.50 0.2767449
821.60 0.2766434
821.70 0.2765419
821.80 0.2764405
821.90 0.2763391
822.00 0.2762378
822.10 0.2761364
822.20 0.2760352
822.30 0.2759339
822.40 0.2758328
822.50 0.2757316
822.60 0.2756305
822.70 0.2755294
822.80 0.2754284
822.90 0.2753274
823.00 0.2752265
823.10 0.2751256
823.20 0.2750247
823.30 0.2749239
823.40 0.2748231
823.50 0.2747224
823.60 0.2746217
823.70 0.274521
823.80 0.2744204
823.90 0.2743198
824.00 0.2742193
824.10 0.2741188
824.20 0.2740184
824.30 0.2739179
824.40 0.2738176
824.50 0.2737172
824.60 0.2736169
824.70 0.2735167
824.80 0.2734165
824.90 0.2733163
825.00 0.2732162
825.10 0.2731161
825.20 0.2730161
825.30 0.272916
825.40 0.2728161
825.50 0.2727162
825.60 0.2726163
825.70 0.2725164
825.80 0.2724166
825.90 0.2723169
826.00 0.2722171
826.10 0.2721174
826.20 0.2720178
826.30 0.271919
826.40 0.2718208
826.50 0.2717227
826.60 0.2716246
826.70 0.2715265
826.80 0.2714285
826.90 0.2713305
827.00 0.2712326
827.10 0.2711347
827.20 0.2710368
827.30 0.270939
827.40 0.2708412
827.50 0.2707434
827.60 0.2706457
827.70 0.270548
827.80 0.2704504
827.90 0.2703528
828.00 0.2702553
828.10 0.2701578
828.20 0.2700603
828.30 0.2699628
828.40 0.2698654
828.50 0.2697681
828.60 0.2696709
828.70 0.269574
828.80 0.2694771
828.90 0.2693802
829.00 0.2692834
829.10 0.2691866
829.20 0.2690899
829.30 0.2689931
829.40 0.2688965
829.50 0.2687998
829.60 0.2687032
829.70 0.2686067
829.80 0.2685102
829.90 0.2684137
830.00 0.2683173
830.10 0.2682208
830.20 0.2681245
830.30 0.2680282
830.40 0.2679319
830.50 0.2678356
830.60 0.2677394
830.70 0.2676432
830.80 0.2675471
830.90 0.267451
831.00 0.267355
831.10 0.267259
831.20 0.267163
831.30 0.267067
831.40 0.2669711
831.50 0.2668753
831.60 0.2667794
831.70 0.2666837
831.80 0.2665879
831.90 0.2664922
832.00 0.2663965
832.10 0.2663009
832.20 0.2662053
832.30 0.2661097
832.40 0.2660142
832.50 0.2659188
832.60 0.2658233
832.70 0.2657279
832.80 0.2656325
832.90 0.2655372
833.00 0.2654419
833.10 0.2653467
833.20 0.2652515
833.30 0.2651563
833.40 0.2650612
833.50 0.2649661
833.60 0.264871
833.70 0.264776
833.80 0.264681
833.90 0.264586
834.00 0.2644911
834.10 0.2643963
834.20 0.2643014
834.30 0.2642066
834.40 0.2641119
834.50 0.2640172
834.60 0.2639225
834.70 0.2638278
834.80 0.2637332
834.90 0.2636387
835.00 0.2635441
835.10 0.2634496
835.20 0.2633552
835.30 0.2632608
835.40 0.2631664
835.50 0.263072
835.60 0.2629777
835.70 0.2628835
835.80 0.2627892
835.90 0.262695
836.00 0.2626009
836.10 0.2625068
836.20 0.2624127
836.30 0.2623187
836.40 0.2622246
836.50 0.2621307
836.60 0.2620368
836.70 0.2619429
836.80 0.261849
836.90 0.2617554
837.00 0.2616619
837.10 0.2615685
837.20 0.2614751
837.30 0.2613817
837.40 0.2612884
837.50 0.2611951
837.60 0.2611019
837.70 0.2610087
837.80 0.2609155
837.90 0.2608224
838.00 0.2607293
838.10 0.2606362
838.20 0.2605432
838.30 0.2604502
838.40 0.2603572
838.50 0.2602643
838.60 0.2601715
838.70 0.2600786
838.80 0.2599858
838.90 0.259893
839.00 0.2598003
839.10 0.2597076
839.20 0.259615
839.30 0.2595223
839.40 0.2594298
839.50 0.2593372
839.60 0.2592447
839.70 0.2591522
839.80 0.2590598
839.90 0.2589674
840.00 0.258875
840.10 0.2587827
840.20 0.2586904
840.30 0.2585982
840.40 0.258506
840.50 0.2584138
840.60 0.2583216
840.70 0.2582295
840.80 0.2581375
840.90 0.2580454
841.00 0.2579534
841.10 0.2578615
841.20 0.2577696
841.30 0.2576777
841.40 0.2575858
841.50 0.257494
841.60 0.2574023
841.70 0.2573105
841.80 0.2572188
841.90 0.2571272
842.00 0.2570355
842.10 0.2569439
842.20 0.2568524
842.30 0.2567609
842.40 0.2566694
842.50 0.256578
842.60 0.2564865
842.70 0.2563952
842.80 0.2563038
842.90 0.2562125
843.00 0.2561213
843.10 0.25603
843.20 0.2559388
843.30 0.2558477
843.40 0.2557566
843.50 0.2556655
843.60 0.2555744
843.70 0.2554834
843.80 0.2553925
843.90 0.2553015
844.00 0.2552106
844.10 0.2551197
844.20 0.2550289
844.30 0.2549381
844.40 0.2548474
844.50 0.2547566
844.60 0.2546659
844.70 0.2545753
844.80 0.2544847
844.90 0.2543941
845.00 0.2543035
845.10 0.254213
845.20 0.2541226
845.30 0.2540315
845.40 0.2539404
845.50 0.2538494
845.60 0.2537584
845.70 0.2536675
845.80 0.2535766
845.90 0.2534857
846.00 0.2533949
846.10 0.2533041
846.20 0.2532134
846.30 0.2531226
846.40 0.2530319
846.50 0.2529413
846.60 0.2528507
846.70 0.2527601
846.80 0.2526695
846.90 0.252579
847.00 0.2524886
847.10 0.2523981
847.20 0.2523077
847.30 0.2522174
847.40 0.252127
847.50 0.2520367
847.60 0.2519465
847.70 0.2518562
847.80 0.2517661
847.90 0.2516759
848.00 0.2515858
848.10 0.2514957
848.20 0.2514057
848.30 0.2513157
848.40 0.2512257
848.50 0.2511357
848.60 0.2510458
848.70 0.250956
848.80 0.2508661
848.90 0.2507763
849.00 0.2506866
849.10 0.2505968
849.20 0.2505071
849.30 0.2504175
849.40 0.2503279
849.50 0.2502383
849.60 0.2501487
849.70 0.2500592
849.80 0.2499697
849.90 0.2498803
850.00 0.2497909
850.10 0.2497015
850.20 0.2496122
850.30 0.2495229
850.40 0.2494336
850.50 0.2493444
850.60 0.2492552
850.70 0.249166
850.80 0.2490769
850.90 0.2489878
851.00 0.2488987
851.10 0.2488097
851.20 0.2487207
851.30 0.2486317
851.40 0.2485428
851.50 0.2484539
851.60 0.2483651
851.70 0.2482763
851.80 0.2481875
851.90 0.2480987
852.00 0.24801
852.10 0.2479213
852.20 0.2478327
852.30 0.2477441
852.40 0.2476555
852.50 0.247567
852.60 0.2474785
852.70 0.24739
852.80 0.2473016
852.90 0.2472132
853.00 0.2471248
853.10 0.2470365
853.20 0.2469482
853.30 0.2468599
853.40 0.2467717
853.50 0.2466835
853.60 0.2465954
853.70 0.2465078
853.80 0.246421
853.90 0.2463341
854.00 0.2462473
854.10 0.2461605
854.20 0.2460738
854.30 0.2459871
854.40 0.2459004
854.50 0.2458138
854.60 0.2457272
854.70 0.2456406
854.80 0.245554
854.90 0.2454675
855.00 0.2453811
855.10 0.2452946
855.20 0.2452082
855.30 0.2451219
855.40 0.2450355
855.50 0.2449492
855.60 0.2448629
855.70 0.2447767
855.80 0.2446905
855.90 0.2446043
856.00 0.2445182
856.10 0.2444321
856.20 0.244346
856.30 0.24426
856.40 0.244174
856.50 0.244088
856.60 0.2440021
856.70 0.2439162
856.80 0.2438303
856.90 0.2437445
857.00 0.2436587
857.10 0.2435729
857.20 0.2434872
857.30 0.2434015
857.40 0.2433158
857.50 0.2432302
857.60 0.2431446
857.70 0.243059
857.80 0.2429735
857.90 0.242888
858.00 0.2428025
858.10 0.2427171
858.20 0.2426317
858.30 0.2425463
858.40 0.242461
858.50 0.2423757
858.60 0.2422904
858.70 0.2422052
858.80 0.24212
858.90 0.2420348
859.00 0.2419497
859.10 0.2418646
859.20 0.2417795
859.30 0.2416945
859.40 0.2416095
859.50 0.2415245
859.60 0.2414396
859.70 0.2413547
859.80 0.2412698
859.90 0.2411849
860.00 0.2411001
860.10 0.2410154
860.20 0.2409306
860.30 0.2408459
860.40 0.2407613
860.50 0.2406766
860.60 0.240592
860.70 0.2405074
860.80 0.2404229
860.90 0.2403384
861.00 0.2402539
861.10 0.2401695
861.20 0.240085
861.30 0.2400007
861.40 0.2399163
861.50 0.239832
861.60 0.2397477
861.70 0.2396635
861.80 0.2395793
861.90 0.2394951
862.00 0.2394109
862.10 0.2393268
862.20 0.2392427
862.30 0.239158
862.40 0.2390734
862.50 0.2389888
862.60 0.2389042
862.70 0.2388197
862.80 0.2387352
862.90 0.2386508
863.00 0.2385664
863.10 0.238482
863.20 0.2383976
863.30 0.2383133
863.40 0.238229
863.50 0.2381447
863.60 0.2380605
863.70 0.2379763
863.80 0.2378922
863.90 0.237808
864.00 0.2377239
864.10 0.2376399
864.20 0.2375559
864.30 0.2374719
864.40 0.2373879
864.50 0.237304
864.60 0.2372201
864.70 0.2371362
864.80 0.2370524
864.90 0.2369686
865.00 0.2368848
865.10 0.236801
865.20 0.2367173
865.30 0.2366337
865.40 0.23655
865.50 0.2364664
865.60 0.2363828
865.70 0.2362993
865.80 0.2362158
865.90 0.2361323
866.00 0.2360489
866.10 0.2359654
866.20 0.2358821
866.30 0.2357987
866.40 0.2357154
866.50 0.2356321
866.60 0.2355489
866.70 0.2354656
866.80 0.2353824
866.90 0.2352993
867.00 0.2352162
867.10 0.2351331
867.20 0.23505
867.30 0.234967
867.40 0.234884
867.50 0.234801
867.60 0.2347181
867.70 0.2346352
867.80 0.2345523
867.90 0.2344695
868.00 0.2343867
868.10 0.2343039
868.20 0.2342212
868.30 0.2341384
868.40 0.2340558
868.50 0.2339731
868.60 0.2338905
868.70 0.2338079
868.80 0.2337254
868.90 0.2336429
869.00 0.2335604
869.10 0.2334779
869.20 0.2333955
869.30 0.2333131
869.40 0.2332307
869.50 0.2331484
869.60 0.2330661
869.70 0.2329839
869.80 0.2329016
869.90 0.2328194
870.00 0.2327373
870.10 0.2326551
870.20 0.232573
870.30 0.2324909
870.40 0.2324089
870.50 0.2323269
870.60 0.2322449
870.70 0.232163
870.80 0.232081
870.90 0.2320002
871.00 0.2319195
871.10 0.2318388
871.20 0.2317581
871.30 0.2316775
871.40 0.2315969
871.50 0.2315164
871.60 0.2314358
871.70 0.2313553
871.80 0.2312749
871.90 0.2311944
872.00 0.231114
872.10 0.2310336
872.20 0.2309533
872.30 0.230873
872.40 0.2307927
872.50 0.2307125
872.60 0.2306322
872.70 0.230552
872.80 0.2304719
872.90 0.2303918
873.00 0.2303117
873.10 0.2302316
873.20 0.2301516
873.30 0.2300715
873.40 0.2299916
873.50 0.2299116
873.60 0.2298317
873.70 0.2297518
873.80 0.229672
873.90 0.2295922
874.00 0.2295124
874.10 0.2294326
874.20 0.2293529
874.30 0.2292732
874.40 0.2291935
874.50 0.2291139
874.60 0.2290342
874.70 0.2289547
874.80 0.2288751
874.90 0.2287956
875.00 0.2287161
875.10 0.2286367
875.20 0.2285572
875.30 0.2284778
875.40 0.2283985
875.50 0.2283191
875.60 0.2282398
875.70 0.2281605
875.80 0.2280813
875.90 0.2280021
876.00 0.2279229
876.10 0.2278437
876.20 0.2277646
876.30 0.2276855
876.40 0.2276065
876.50 0.2275274
876.60 0.2274484
876.70 0.2273695
876.80 0.2272905
876.90 0.2272116
877.00 0.2271327
877.10 0.2270539
877.20 0.226975
877.30 0.2268962
877.40 0.2268175
877.50 0.2267387
877.60 0.22666
877.70 0.2265814
877.80 0.2265027
877.90 0.2264241
878.00 0.2263455
878.10 0.226267
878.20 0.2261884
878.30 0.22611
878.40 0.2260315
878.50 0.2259531
878.60 0.2258747
878.70 0.2257963
878.80 0.2257179
878.90 0.2256396
879.00 0.2255613
879.10 0.2254831
879.20 0.2254049
879.30 0.2253267
879.40 0.2252485
879.50 0.2251704
879.60 0.2250911
879.70 0.2250116
879.80 0.2249322
879.90 0.2248528
880.00 0.2247734
880.10 0.224694
880.20 0.2246147
880.30 0.2245354
880.40 0.2244562
880.50 0.2243769
880.60 0.2242977
880.70 0.2242186
880.80 0.2241394
880.90 0.2240603
881.00 0.2239812
881.10 0.2239022
881.20 0.2238232
881.30 0.2237442
881.40 0.2236652
881.50 0.2235863
881.60 0.2235074
881.70 0.2234285
881.80 0.2233497
881.90 0.2232709
882.00 0.2231921
882.10 0.2231134
882.20 0.2230346
882.30 0.222956
882.40 0.2228773
882.50 0.2227987
882.60 0.2227201
882.70 0.2226415
882.80 0.222563
882.90 0.2224845
883.00 0.222406
883.10 0.2223275
883.20 0.2222491
883.30 0.2221707
883.40 0.2220924
883.50 0.222014
883.60 0.2219357
883.70 0.2218575
883.80 0.2217792
883.90 0.221701
884.00 0.2216242
884.10 0.2215477
884.20 0.2214712
884.30 0.2213948
884.40 0.2213183
884.50 0.2212419
884.60 0.2211656
884.70 0.2210892
884.80 0.2210129
884.90 0.2209366
885.00 0.2208604
885.10 0.2207842
885.20 0.220708
885.30 0.2206318
885.40 0.2205557
885.50 0.2204796
885.60 0.2204035
885.70 0.2203275
885.80 0.2202514
885.90 0.2201754
886.00 0.2200995
886.10 0.2200235
886.20 0.2199476
886.30 0.2198718
886.40 0.2197959
886.50 0.2197201
886.60 0.2196443
886.70 0.2195685
886.80 0.2194928
886.90 0.2194171
887.00 0.2193414
887.10 0.2192658
887.20 0.2191902
887.30 0.2191146
887.40 0.219039
887.50 0.2189635
887.60 0.218888
887.70 0.2188125
887.80 0.218737
887.90 0.2186616
888.00 0.2185862
888.10 0.2185109
888.20 0.2184355
888.30 0.2183602
888.40 0.2182845
888.50 0.2182087
888.60 0.2181329
888.70 0.2180572
888.80 0.2179815
888.90 0.2179058
889.00 0.2178301
889.10 0.2177545
889.20 0.2176789
889.30 0.2176033
889.40 0.2175278
889.50 0.2174523
889.60 0.2173768
889.70 0.2173014
889.80 0.2172259
889.90 0.2171505
890.00 0.2170752
890.10 0.2169998
890.20 0.2169245
890.30 0.2168492
890.40 0.216774
890.50 0.2166988
890.60 0.2166236
890.70 0.2165484
890.80 0.2164732
890.90 0.2163981
891.00 0.216323
891.10 0.216248
891.20 0.216173
891.30 0.216098
891.40 0.216023
891.50 0.215948
891.60 0.2158731
891.70 0.2157982
891.80 0.2157234
891.90 0.2156485
892.00 0.2155737
892.10 0.215499
892.20 0.2154242
892.30 0.2153495
892.40 0.2152748
892.50 0.2152002
892.60 0.2151255
892.70 0.2150509
892.80 0.2149763
892.90 0.2149018
893.00 0.2148273
893.10 0.2147528
893.20 0.2146783
893.30 0.2146039
893.40 0.2145294
893.50 0.2144551
893.60 0.2143807
893.70 0.2143064
893.80 0.2142321
893.90 0.2141578
894.00 0.2140836
894.10 0.2140094
894.20 0.2139352
894.30 0.213861
894.40 0.2137869
894.50 0.2137128
894.60 0.2136387
894.70 0.2135646
894.80 0.2134906
894.90 0.2134166
895.00 0.2133427
895.10 0.2132687
895.20 0.2131948
895.30 0.2131209
895.40 0.2130471
895.50 0.2129733
895.60 0.2128995
895.70 0.2128257
895.80 0.2127519
895.90 0.2126782
896.00 0.2126045
896.10 0.2125309
896.20 0.2124572
896.30 0.2123836
896.40 0.2123101
896.50 0.2122365
896.60 0.212163
896.70 0.2120895
896.80 0.212016
896.90 0.2119426
897.00 0.2118692
897.10 0.2117958
897.20 0.2117225
897.30 0.2116502
897.40 0.2115779
897.50 0.2115057
897.60 0.2114335
897.70 0.2113613
897.80 0.2112891
897.90 0.211217
898.00 0.2111449
898.10 0.2110728
898.20 0.2110008
898.30 0.2109288
898.40 0.2108568
898.50 0.2107848
898.60 0.2107129
898.70 0.210641
898.80 0.2105691
898.90 0.2104972
899.00 0.2104254
899.10 0.2103536
899.20 0.2102818
899.30 0.2102101
899.40 0.2101383
899.50 0.2100667
899.60 0.209995
899.70 0.2099233
899.80 0.2098517
899.90 0.2097801
900.00 0.2097086
900.10 0.209637
900.20 0.2095655
900.30 0.209494
900.40 0.2094226
900.50 0.2093511
900.60 0.2092797
900.70 0.2092084
900.80 0.209137
900.90 0.2090657
901.00 0.2089944
901.10 0.2089231
901.20 0.2088519
901.30 0.2087807
901.40 0.2087095
901.50 0.2086383
901.60 0.2085672
901.70 0.208496
901.80 0.208425
901.90 0.2083539
902.00 0.2082829
902.10 0.2082119
902.20 0.2081409
902.30 0.2080699
902.40 0.207999
902.50 0.2079281
902.60 0.2078572
902.70 0.2077864
902.80 0.2077155
902.90 0.2076447
903.00 0.207574
903.10 0.2075032
903.20 0.2074325
903.30 0.2073618
903.40 0.2072912
903.50 0.2072205
903.60 0.2071499
903.70 0.2070793
903.80 0.2070088
903.90 0.2069382
904.00 0.2068677
904.10 0.2067972
904.20 0.2067268
904.30 0.2066563
904.40 0.2065859
904.50 0.2065156
904.60 0.2064452
904.70 0.2063749
904.80 0.2063046
904.90 0.2062343
905.00 0.2061641
905.10 0.2060938
905.20 0.2060236
905.30 0.2059535
905.40 0.2058833
905.50 0.2058132
905.60 0.2057431
905.70 0.2056731
905.80 0.205603
905.90 0.205533
906.00 0.205463
906.10 0.2053931
906.20 0.2053232
906.30 0.2052535
906.40 0.2051839
906.50 0.2051143
906.60 0.2050447
906.70 0.2049751
906.80 0.2049056
906.90 0.2048361
907.00 0.2047666
907.10 0.2046971
907.20 0.2046277
907.30 0.2045583
907.40 0.2044889
907.50 0.2044195
907.60 0.2043502
907.70 0.2042809
907.80 0.2042116
907.90 0.2041424
908.00 0.2040731
908.10 0.2040039
908.20 0.2039347
908.30 0.2038656
908.40 0.2037965
908.50 0.2037274
908.60 0.2036583
908.70 0.2035892
908.80 0.2035202
908.90 0.2034512
909.00 0.2033822
909.10 0.2033133
909.20 0.2032444
909.30 0.2031755
909.40 0.2031066
909.50 0.2030377
909.60 0.2029689
909.70 0.2029001
909.80 0.2028313
909.90 0.2027626
910.00 0.2026939
910.10 0.2026252
910.20 0.2025565
910.30 0.2024879
910.40 0.2024192
910.50 0.2023506
910.60 0.2022821
910.70 0.2022135
910.80 0.2021435
910.90 0.2020735
911.00 0.2020035
911.10 0.2019336
911.20 0.2018636
911.30 0.2017937
911.40 0.2017239
911.50 0.201654
911.60 0.2015842
911.70 0.2015144
911.80 0.2014446
911.90 0.2013749
912.00 0.2013052
912.10 0.2012355
912.20 0.2011658
912.30 0.2010962
912.40 0.2010266
912.50 0.200957
912.60 0.2008874
912.70 0.2008179
912.80 0.2007484
912.90 0.2006789
913.00 0.2006094
913.10 0.20054
913.20 0.2004706
913.30 0.2004012
913.40 0.2003318
913.50 0.2002625
913.60 0.2001932
913.70 0.2001239
913.80 0.2000547
913.90 0.1999854
914.00 0.1999162
914.10 0.199847
914.20 0.1997779
914.30 0.1997088
914.40 0.1996397
914.50 0.1995706
914.60 0.1995015
914.70 0.1994325
914.80 0.1993635
914.90 0.1992945
915.00 0.1992256
915.10 0.1991567
915.20 0.1990878
915.30 0.1990201
915.40 0.198953
915.50 0.1988859
915.60 0.1988188
915.70 0.1987517
915.80 0.1986847
915.90 0.1986177
916.00 0.1985507
916.10 0.1984838
916.20 0.1984169
916.30 0.19835
916.40 0.1982831
916.50 0.1982162
916.60 0.1981494
916.70 0.1980826
916.80 0.1980158
916.90 0.1979491
917.00 0.1978823
917.10 0.1978156
917.20 0.197749
917.30 0.1976823
917.40 0.1976157
917.50 0.1975491
917.60 0.1974825
917.70 0.1974159
917.80 0.1973494
917.90 0.1972829
918.00 0.1972164
918.10 0.1971499
918.20 0.1970835
918.30 0.1970171
918.40 0.1969507
918.50 0.1968843
918.60 0.196818
918.70 0.1967517
918.80 0.1966854
918.90 0.1966191
919.00 0.1965528
919.10 0.1964866
919.20 0.1964204
919.30 0.1963543
919.40 0.1962881
919.50 0.196222
919.60 0.1961559
919.70 0.1960898
919.80 0.1960238
919.90 0.1959577
920.00 0.1958917
920.10 0.1958258
920.20 0.1957598
920.30 0.1956939
920.40 0.195628
920.50 0.1955621
920.60 0.1954962
920.70 0.1954304
920.80 0.1953646
920.90 0.1952988
921.00 0.195233
921.10 0.1951673
921.20 0.1951016
921.30 0.1950359
921.40 0.1949702
921.50 0.1949046
921.60 0.1948389
921.70 0.1947733
921.80 0.1947078
921.90 0.1946422
922.00 0.1945767
922.10 0.1945112
922.20 0.1944457
922.30 0.1943803
922.40 0.1943148
922.50 0.1942494
922.60 0.1941841
922.70 0.1941187
922.80 0.1940534
922.90 0.1939881
923.00 0.1939228
923.10 0.1938575
923.20 0.1937923
923.30 0.1937271
923.40 0.1936619
923.50 0.1935967
923.60 0.1935316
923.70 0.1934664
923.80 0.1934013
923.90 0.1933363
924.00 0.1932712
924.10 0.1932062
924.20 0.1931412
924.30 0.1930762
924.40 0.193011
924.50 0.1929449
924.60 0.1928788
924.70 0.1928127
924.80 0.1927466
924.90 0.1926806
925.00 0.1926146
925.10 0.1925486
925.20 0.1924826
925.30 0.1924167
925.40 0.1923508
925.50 0.1922849
925.60 0.192219
925.70 0.1921532
925.80 0.1920873
925.90 0.1920215
926.00 0.1919558
926.10 0.19189
926.20 0.1918243
926.30 0.1917586
926.40 0.1916929
926.50 0.1916273
926.60 0.1915616
926.70 0.191496
926.80 0.1914304
926.90 0.1913649
927.00 0.1912993
927.10 0.1912338
927.20 0.1911683
927.30 0.1911029
927.40 0.1910374
927.50 0.190972
927.60 0.1909066
927.70 0.1908413
927.80 0.1907759
927.90 0.1907106
928.00 0.1906453
928.10 0.19058
928.20 0.1905148
928.30 0.1904495
928.40 0.1903843
928.50 0.1903192
928.60 0.190254
928.70 0.1901889
928.80 0.1901238
928.90 0.1900587
929.00 0.1899936
929.10 0.1899299
929.20 0.1898663
929.30 0.1898028
929.40 0.1897392
929.50 0.1896757
929.60 0.1896122
929.70 0.1895487
929.80 0.1894853
929.90 0.1894218
930.00 0.1893584
930.10 0.189295
930.20 0.1892317
930.30 0.1891683
930.40 0.189105
930.50 0.1890417
930.60 0.1889784
930.70 0.1889152
930.80 0.1888519
930.90 0.1887887
931.00 0.1887256
931.10 0.1886624
931.20 0.1885993
931.30 0.1885361
931.40 0.1884731
931.50 0.18841
931.60 0.1883469
931.70 0.1882839
931.80 0.1882209
931.90 0.1881579
932.00 0.188095
932.10 0.188032
932.20 0.1879691
932.30 0.1879063
932.40 0.1878434
932.50 0.1877805
932.60 0.1877177
932.70 0.1876549
932.80 0.1875922
932.90 0.1875294
933.00 0.1874667
933.10 0.187404
933.20 0.1873413
933.30 0.1872786
933.40 0.187216
933.50 0.1871534
933.60 0.1870908
933.70 0.1870284
933.80 0.186966
933.90 0.1869037
934.00 0.1868415
934.10 0.1867792
934.20 0.186717
934.30 0.1866547
934.40 0.1865926
934.50 0.1865304
934.60 0.1864682
934.70 0.1864061
934.80 0.186344
934.90 0.1862819
935.00 0.1862199
935.10 0.1861578
935.20 0.1860958
935.30 0.1860338
935.40 0.1859719
935.50 0.1859099
935.60 0.185848
935.70 0.1857861
935.80 0.1857242
935.90 0.1856623
936.00 0.1856005
936.10 0.1855387
936.20 0.1854769
936.30 0.1854151
936.40 0.1853534
936.50 0.1852917
936.60 0.1852299
936.70 0.1851683
936.80 0.1851066
936.90 0.185045
937.00 0.1849834
937.10 0.1849218
937.20 0.1848602
937.30 0.1847986
937.40 0.1847371
937.50 0.1846756
937.60 0.1846141
937.70 0.1845527
937.80 0.1844912
937.90 0.1844298
938.00 0.1843684
938.10 0.184307
938.20 0.1842457
938.30 0.1841844
938.40 0.1841231
938.50 0.1840618
938.60 0.1840005
938.70 0.1839393
938.80 0.1838781
938.90 0.1838169
939.00 0.1837557
939.10 0.1836945
939.20 0.1836334
939.30 0.1835723
939.40 0.1835112
939.50 0.1834501
939.60 0.1833891
939.70 0.1833281
939.80 0.1832671
939.90 0.1832061
940.00 0.1831451
940.10 0.1830842
940.20 0.1830233
940.30 0.1829624
940.40 0.1829015
940.50 0.1828407
940.60 0.1827798
940.70 0.182719
940.80 0.1826583
940.90 0.1825975
941.00 0.1825368
941.10 0.182476
941.20 0.1824153
941.30 0.1823547
941.40 0.182294
941.50 0.1822334
941.60 0.1821728
941.70 0.1821122
941.80 0.1820516
941.90 0.1819911
942.00 0.1819306
942.10 0.1818701
942.20 0.1818096
942.30 0.1817491
942.40 0.1816887
942.50 0.1816283
942.60 0.1815679
942.70 0.1815075
942.80 0.1814472
942.90 0.1813868
943.00 0.1813263
943.10 0.1812656
943.20 0.1812049
943.30 0.1811442
943.40 0.1810835
943.50 0.1810228
943.60 0.1809622
943.70 0.1809016
943.80 0.180841
943.90 0.1807804
944.00 0.1807199
944.10 0.1806594
944.20 0.1805989
944.30 0.1805384
944.40 0.1804779
944.50 0.1804175
944.60 0.180357
944.70 0.1802966
944.80 0.1802363
944.90 0.1801759
945.00 0.1801156
945.10 0.1800553
945.20 0.179995
945.30 0.1799347
945.40 0.1798745
945.50 0.1798142
945.60 0.179754
945.70 0.1796939
945.80 0.1796337
945.90 0.1795735
946.00 0.1795134
946.10 0.1794533
946.20 0.1793933
946.30 0.1793332
946.40 0.1792732
946.50 0.1792132
946.60 0.1791532
946.70 0.1790932
946.80 0.1790333
946.90 0.1789733
947.00 0.1789134
947.10 0.1788535
947.20 0.1787937
947.30 0.1787338
947.40 0.178674
947.50 0.1786142
947.60 0.1785544
947.70 0.1784947
947.80 0.1784349
947.90 0.1783752
948.00 0.1783155
948.10 0.1782559
948.20 0.1781962
948.30 0.1781366
948.40 0.178077
948.50 0.1780174
948.60 0.1779578
948.70 0.1778983
948.80 0.1778388
948.90 0.1777793
949.00 0.1777198
949.10 0.1776603
949.20 0.1776009
949.30 0.1775415
949.40 0.1774821
949.50 0.1774227
949.60 0.1773633
949.70 0.177304
949.80 0.1772447
949.90 0.1771854
950.00 0.1771261
950.10 0.1770669
950.20 0.1770077
950.30 0.1769484
950.40 0.1768893
950.50 0.1768301
950.60 0.176771
950.70 0.1767118
950.80 0.1766527
950.90 0.1765936
951.00 0.1765346
951.10 0.1764755
951.20 0.1764165
951.30 0.1763575
951.40 0.1762986
951.50 0.1762396
951.60 0.1761807
951.70 0.1761218
951.80 0.1760629
951.90 0.176004
952.00 0.1759451
952.10 0.1758863
952.20 0.1758275
952.30 0.1757687
952.40 0.17571
952.50 0.1756521
952.60 0.1755943
952.70 0.1755364
952.80 0.1754786
952.90 0.1754208
953.00 0.1753631
953.10 0.1753053
953.20 0.1752476
953.30 0.1751899
953.40 0.1751322
953.50 0.1750745
953.60 0.1750168
953.70 0.1749592
953.80 0.1749016
953.90 0.174844
954.00 0.1747864
954.10 0.1747289
954.20 0.1746714
954.30 0.1746139
954.40 0.1745564
954.50 0.1744989
954.60 0.1744414
954.70 0.174384
954.80 0.1743266
954.90 0.1742692
955.00 0.1742119
955.10 0.1741545
955.20 0.1740972
955.30 0.1740399
955.40 0.1739826
955.50 0.1739253
955.60 0.1738681
955.70 0.1738108
955.80 0.1737536
955.90 0.1736965
956.00 0.1736393
956.10 0.1735821
956.20 0.173525
956.30 0.1734679
956.40 0.1734108
956.50 0.1733538
956.60 0.1732967
956.70 0.1732397
956.80 0.1731827
956.90 0.1731257
957.00 0.1730687
957.10 0.1730118
957.20 0.1729549
957.30 0.172898
957.40 0.1728411
957.50 0.1727842
957.60 0.1727274
957.70 0.1726705
957.80 0.1726137
957.90 0.1725569
958.00 0.1725002
958.10 0.1724434
958.20 0.1723867
958.30 0.17233
958.40 0.1722733
958.50 0.1722167
958.60 0.17216
958.70 0.1721034
958.80 0.1720468
958.90 0.1719902
959.00 0.1719336
959.10 0.1718771
959.20 0.1718205
959.30 0.171764
959.40 0.1717076
959.50 0.1716511
959.60 0.1715946
959.70 0.1715382
959.80 0.1714818
959.90 0.1714254
960.00 0.171369
960.10 0.1713127
960.20 0.1712564
960.30 0.1712001
960.40 0.1711438
960.50 0.1710875
960.60 0.1710313
960.70 0.170975
960.80 0.1709188
960.90 0.1708626
961.00 0.1708065
961.10 0.1707503
961.20 0.1706942
961.30 0.1706381
961.40 0.170582
961.50 0.1705259
961.60 0.1704698
961.70 0.1704138
961.80 0.1703578
961.90 0.1703018
962.00 0.170246
962.10 0.1701902
962.20 0.1701345
962.30 0.1700788
962.40 0.1700231
962.50 0.1699674
962.60 0.1699118
962.70 0.1698561
962.80 0.1698005
962.90 0.1697449
963.00 0.1696893
963.10 0.1696338
963.20 0.1695783
963.30 0.1695227
963.40 0.1694672
963.50 0.1694118
963.60 0.1693563
963.70 0.1693009
963.80 0.1692454
963.90 0.16919
964.00 0.1691346
964.10 0.1690793
964.20 0.1690239
964.30 0.1689686
964.40 0.1689133
964.50 0.168858
964.60 0.1688028
964.70 0.1687475
964.80 0.1686923
964.90 0.1686371
965.00 0.1685819
965.10 0.1685267
965.20 0.1684716
965.30 0.1684164
965.40 0.1683613
965.50 0.1683062
965.60 0.1682511
965.70 0.1681961
965.80 0.1681411
965.90 0.168086
966.00 0.168031
966.10 0.1679761
966.20 0.1679211
966.30 0.1678662
966.40 0.1678112
966.50 0.1677563
966.60 0.1677015
966.70 0.1676466
966.80 0.1675917
966.90 0.1675369
967.00 0.1674821
967.10 0.1674273
967.20 0.1673726
967.30 0.1673178
967.40 0.1672631
967.50 0.1672084
967.60 0.1671537
967.70 0.167099
967.80 0.1670443
967.90 0.1669897
968.00 0.1669351
968.10 0.1668805
968.20 0.1668259
968.30 0.1667714
968.40 0.1667168
968.50 0.1666623
968.60 0.1666078
968.70 0.1665533
968.80 0.1664988
968.90 0.1664444
969.00 0.16639
969.10 0.1663356
969.20 0.1662812
969.30 0.1662268
969.40 0.1661725
969.50 0.1661181
969.60 0.1660638
969.70 0.1660095
969.80 0.1659552
969.90 0.165901
970.00 0.1658467
970.10 0.1657925
970.20 0.1657383
970.30 0.1656841
970.40 0.16563
970.50 0.1655758
970.60 0.1655217
970.70 0.1654676
970.80 0.1654135
970.90 0.1653595
971.00 0.1653054
971.10 0.1652514
971.20 0.1651974
971.30 0.1651434
971.40 0.1650894
971.50 0.1650354
971.60 0.1649816
971.70 0.1649279
971.80 0.1648742
971.90 0.1648205
972.00 0.1647669
972.10 0.1647132
972.20 0.1646596
972.30 0.164606
972.40 0.1645524
972.50 0.1644988
972.60 0.1644453
972.70 0.1643917
972.80 0.1643382
972.90 0.1642847
973.00 0.1642312
973.10 0.1641778
973.20 0.1641243
973.30 0.1640709
973.40 0.1640175
973.50 0.1639641
973.60 0.1639107
973.70 0.1638574
973.80 0.1638041
973.90 0.1637507
974.00 0.1636974
974.10 0.1636442
974.20 0.1635909
974.30 0.1635377
974.40 0.1634844
974.50 0.1634312
974.60 0.1633781
974.70 0.1633249
974.80 0.1632717
974.90 0.1632186
975.00 0.1631655
975.10 0.1631124
975.20 0.1630593
975.30 0.1630063
975.40 0.1629532
975.50 0.1629002
975.60 0.1628472
975.70 0.1627942
975.80 0.1627413
975.90 0.1626883
976.00 0.1626354
976.10 0.1625825
976.20 0.1625296
976.30 0.1624767
976.40 0.1624239
976.50 0.162371
976.60 0.1623182
976.70 0.1622654
976.80 0.1622126
976.90 0.1621599
977.00 0.1621071
977.10 0.1620544
977.20 0.1620017
977.30 0.161949
977.40 0.1618963
977.50 0.1618437
977.60 0.161791
977.70 0.1617384
977.80 0.1616858
977.90 0.1616332
978.00 0.1615807
978.10 0.1615281
978.20 0.1614756
978.30 0.1614231
978.40 0.1613706
978.50 0.1613181
978.60 0.1612657
978.70 0.1612132
978.80 0.1611608
978.90 0.1611084
979.00 0.161056
979.10 0.1610037
979.20 0.1609513
979.30 0.160899
979.40 0.1608467
979.50 0.1607944
979.60 0.1607421
979.70 0.1606898
979.80 0.1606376
979.90 0.1605854
980.00 0.1605332
980.10 0.160481
980.20 0.1604288
980.30 0.1603767
980.40 0.1603245
980.50 0.1602724
980.60 0.1602203
980.70 0.1601683
980.80 0.1601162
980.90 0.1600642
981.00 0.1600121
981.10 0.1599601
981.20 0.1599081
981.30 0.1598563
981.40 0.1598045
981.50 0.1597528
981.60 0.159701
981.70 0.1596493
981.80 0.1595977
981.90 0.159546
982.00 0.1594943
982.10 0.1594427
982.20 0.1593911
982.30 0.1593395
982.40 0.1592879
982.50 0.1592363
982.60 0.1591848
982.70 0.1591333
982.80 0.1590817
982.90 0.1590303
983.00 0.1589788
983.10 0.1589273
983.20 0.1588759
983.30 0.1588245
983.40 0.1587731
983.50 0.1587217
983.60 0.1586703
983.70 0.1586189
983.80 0.1585676
983.90 0.1585163
984.00 0.158465
984.10 0.1584137
984.20 0.1583624
984.30 0.1583112
984.40 0.15826
984.50 0.1582088
984.60 0.1581576
984.70 0.1581064
984.80 0.1580552
984.90 0.1580041
985.00 0.157953
985.10 0.1579019
985.20 0.1578508
985.30 0.1577997
985.40 0.1577486
985.50 0.1576976
985.60 0.1576466
985.70 0.1575956
985.80 0.1575446
985.90 0.1574936
986.00 0.1574427
986.10 0.1573918
986.20 0.1573408
986.30 0.1572899
986.40 0.1572391
986.50 0.1571882
986.60 0.1571374
986.70 0.1570865
986.80 0.1570357
986.90 0.1569849
987.00 0.1569342
987.10 0.1568834
987.20 0.1568327
987.30 0.1567819
987.40 0.1567312
987.50 0.1566805
987.60 0.1566299
987.70 0.1565792
987.80 0.1565286
987.90 0.156478
988.00 0.1564274
988.10 0.1563768
988.20 0.1563262
988.30 0.1562757
988.40 0.1562251
988.50 0.1561746
988.60 0.1561241
988.70 0.1560736
988.80 0.1560232
988.90 0.1559727
989.00 0.1559223
989.10 0.1558719
989.20 0.1558215
989.30 0.1557711
989.40 0.1557207
989.50 0.1556704
989.60 0.1556201
989.70 0.1555698
989.80 0.1555195
989.90 0.1554692
990.00 0.1554189
990.10 0.1553687
990.20 0.1553185
990.30 0.1552683
990.40 0.1552181
990.50 0.1551679
990.60 0.1551177
990.70 0.1550676
990.80 0.1550175
990.90 0.1549674
991.00 0.1549173
991.10 0.1548673
991.20 0.1548174
991.30 0.1547676
991.40 0.1547177
991.50 0.1546679
991.60 0.1546181
991.70 0.1545683
991.80 0.1545186
991.90 0.1544688
992.00 0.1544191
992.10 0.1543694
992.20 0.1543197
992.30 0.15427
992.40 0.1542203
992.50 0.1541707
992.60 0.154121
992.70 0.1540714
992.80 0.1540218
992.90 0.1539722
993.00 0.1539227
993.10 0.1538731
993.20 0.1538236
993.30 0.1537741
993.40 0.1537246
993.50 0.1536751
993.60 0.1536256
993.70 0.1535762
993.80 0.1535268
993.90 0.1534774
994.00 0.153428
994.10 0.1533786
994.20 0.1533292
994.30 0.1532799
994.40 0.1532305
994.50 0.1531812
994.60 0.1531319
994.70 0.1530827
994.80 0.1530334
994.90 0.1529841
995.00 0.1529349
995.10 0.1528857
995.20 0.1528365
995.30 0.1527873
995.40 0.1527382
995.50 0.152689
995.60 0.1526399
995.70 0.1525908
995.80 0.1525417
995.90 0.1524926
996.00 0.1524435
996.10 0.1523945
996.20 0.1523455
996.30 0.1522965
996.40 0.1522475
996.50 0.1521985
996.60 0.1521495
996.70 0.1521006
996.80 0.1520517
996.90 0.1520028
997.00 0.1519539
997.10 0.151905
997.20 0.1518561
997.30 0.1518073
997.40 0.1517585
997.50 0.1517097
997.60 0.1516609
997.70 0.1516121
997.80 0.1515633
997.90 0.1515146
998.00 0.1514659
998.10 0.1514171
998.20 0.1513685
998.30 0.1513198
998.40 0.1512711
998.50 0.1512225
998.60 0.1511738
998.70 0.1511252
998.80 0.1510766
998.90 0.1510281
999.00 0.1509795
999.10 0.1509309
999.20 0.1508824
999.30 0.1508339
999.40 0.1507854
999.50 0.1507369
999.60 0.1506885
999.70 0.15064
999.80 0.1505916
999.90 0.1505432
1000.00 0.1504948
1000.10 0.1504464
1000.20 0.150398
1000.30 0.1503497
1000.40 0.1503013
1000.50 0.150253
1000.60 0.1502047
1000.70 0.1501564
1000.80 0.1501082
1000.90 0.1500599
1001.00 0.1500117
1001.10 0.1499637
1001.20 0.1499157
1001.30 0.1498676
1001.40 0.1498196
1001.50 0.1497717
1001.60 0.1497237
1001.70 0.1496758
1001.80 0.1496278
1001.90 0.1495799
1002.00 0.149532
1002.10 0.1494842
1002.20 0.1494363
1002.30 0.1493884
1002.40 0.1493406
1002.50 0.1492928
1002.60 0.149245
1002.70 0.1491972
1002.80 0.1491495
1002.90 0.1491017
1003.00 0.149054
1003.10 0.1490063
1003.20 0.1489585
1003.30 0.1489109
1003.40 0.1488632
1003.50 0.1488155
1003.60 0.1487679
1003.70 0.1487203
1003.80 0.1486727
1003.90 0.1486251
1004.00 0.1485775
1004.10 0.14853
1004.20 0.1484824
1004.30 0.1484349
1004.40 0.1483874
1004.50 0.1483399
1004.60 0.1482924
1004.70 0.1482449
1004.80 0.1481975
1004.90 0.1481501
1005.00 0.1481026
1005.10 0.1480553
1005.20 0.1480079
1005.30 0.1479605
1005.40 0.1479132
1005.50 0.1478658
1005.60 0.1478185
1005.70 0.1477712
1005.80 0.1477239
1005.90 0.1476766
1006.00 0.1476294
1006.10 0.1475821
1006.20 0.1475349
1006.30 0.1474877
1006.40 0.1474405
1006.50 0.1473933
1006.60 0.1473462
1006.70 0.147299
1006.80 0.1472519
1006.90 0.1472048
1007.00 0.1471577
1007.10 0.1471106
1007.20 0.1470635
1007.30 0.1470165
1007.40 0.1469694
1007.50 0.1469224
1007.60 0.1468754
1007.70 0.1468284
1007.80 0.1467814
1007.90 0.1467345
1008.00 0.1466875
1008.10 0.1466406
1008.20 0.1465937
1008.30 0.1465468
1008.40 0.1464999
1008.50 0.1464531
1008.60 0.1464062
1008.70 0.1463594
1008.80 0.1463126
1008.90 0.1462658
1009.00 0.146219
1009.10 0.1461722
1009.20 0.1461254
1009.30 0.1460787
1009.40 0.146032
1009.50 0.1459853
1009.60 0.1459386
1009.70 0.1458919
1009.80 0.1458453
1009.90 0.1457986
1010.00 0.145752
1010.10 0.1457054
1010.20 0.1456588
1010.30 0.1456122
1010.40 0.1455656
1010.50 0.1455191
1010.60 0.1454725
1010.70 0.145426
1010.80 0.1453795
1010.90 0.145333
1011.00 0.1452866
1011.10 0.1452403
1011.20 0.145194
1011.30 0.1451478
1011.40 0.1451016
1011.50 0.1450553
1011.60 0.1450091
1011.70 0.1449629
1011.80 0.1449168
1011.90 0.1448706
1012.00 0.1448245
1012.10 0.1447784
1012.20 0.1447322
1012.30 0.1446862
1012.40 0.1446401
1012.50 0.144594
1012.60 0.144548
1012.70 0.1445019
1012.80 0.1444559
1012.90 0.1444099
1013.00 0.1443639
1013.10 0.144318
1013.20 0.144272
1013.30 0.1442261
1013.40 0.1441801
1013.50 0.1441342
1013.60 0.1440883
1013.70 0.1440425
1013.80 0.1439966
1013.90 0.1439507
1014.00 0.1439049
1014.10 0.1438591
1014.20 0.1438133
1014.30 0.1437675
1014.40 0.1437217
1014.50 0.143676
1014.60 0.1436302
1014.70 0.1435845
1014.80 0.1435388
1014.90 0.1434931
1015.00 0.1434474
1015.10 0.1434017
1015.20 0.1433561
1015.30 0.1433105
1015.40 0.1432648
1015.50 0.1432192
1015.60 0.1431737
1015.70 0.1431281
1015.80 0.1430825
1015.90 0.143037
1016.00 0.1429914
1016.10 0.1429459
1016.20 0.1429004
1016.30 0.1428549
1016.40 0.1428095
1016.50 0.142764
1016.60 0.1427186
1016.70 0.1426732
1016.80 0.1426278
1016.90 0.1425824
1017.00 0.142537
1017.10 0.1424916
1017.20 0.1424463
1017.30 0.1424009
1017.40 0.1423556
1017.50 0.1423103
1017.60 0.142265
1017.70 0.1422198
1017.80 0.1421745
1017.90 0.1421293
1018.00 0.142084
1018.10 0.1420388
1018.20 0.1419936
1018.30 0.1419485
1018.40 0.1419033
1018.50 0.1418581
1018.60 0.141813
1018.70 0.1417679
1018.80 0.1417228
1018.90 0.1416777
1019.00 0.1416326
1019.10 0.1415875
1019.20 0.1415425
1019.30 0.1414975
1019.40 0.1414524
1019.50 0.1414074
1019.60 0.1413625
1019.70 0.1413175
1019.80 0.1412725
1019.90 0.1412276
1020.00 0.1411827
1020.10 0.1411377
1020.20 0.1410928
1020.30 0.141048
1020.40 0.1410031
1020.50 0.1409582
1020.60 0.1409134
1020.70 0.1408686
1020.80 0.1408238
1020.90 0.140779
1021.00 0.1407342
1021.10 0.1406895
1021.20 0.140646
1021.30 0.1406025
1021.40 0.140559
1021.50 0.1405156
1021.60 0.1404721
1021.70 0.1404287
1021.80 0.1403852
1021.90 0.1403418
1022.00 0.1402984
1022.10 0.140255
1022.20 0.1402117
1022.30 0.1401683
1022.40 0.140125
1022.50 0.1400816
1022.60 0.1400383
1022.70 0.139995
1022.80 0.1399517
1022.90 0.1399085
1023.00 0.1398652
1023.10 0.139822
1023.20 0.1397787
1023.30 0.1397355
1023.40 0.1396923
1023.50 0.1396491
1023.60 0.139606
1023.70 0.1395628
1023.80 0.1395197
1023.90 0.1394765
1024.00 0.1394334
1024.10 0.1393903
1024.20 0.1393472
1024.30 0.1393042
1024.40 0.1392611
1024.50 0.1392181
1024.60 0.139175
1024.70 0.139132
1024.80 0.139089
1024.90 0.139046
1025.00 0.1390031
1025.10 0.1389601
1025.20 0.1389172
1025.30 0.1388742
1025.40 0.1388313
1025.50 0.1387884
1025.60 0.1387455
1025.70 0.1387027
1025.80 0.1386598
1025.90 0.138617
1026.00 0.1385741
1026.10 0.1385313
1026.20 0.1384885
1026.30 0.1384446
1026.40 0.1384008
1026.50 0.138357
1026.60 0.1383132
1026.70 0.1382694
1026.80 0.1382256
1026.90 0.1381819
1027.00 0.1381381
1027.10 0.1380944
1027.20 0.1380507
1027.30 0.138007
1027.40 0.1379633
1027.50 0.1379196
1027.60 0.137876
1027.70 0.1378323
1027.80 0.1377887
1027.90 0.1377451
1028.00 0.1377015
1028.10 0.1376579
1028.20 0.1376143
1028.30 0.1375708
1028.40 0.1375272
1028.50 0.1374837
1028.60 0.1374402
1028.70 0.1373967
1028.80 0.1373532
1028.90 0.1373097
1029.00 0.1372662
1029.10 0.1372228
1029.20 0.1371794
1029.30 0.137136
1029.40 0.1370926
1029.50 0.1370492
1029.60 0.1370058
1029.70 0.1369624
1029.80 0.1369191
1029.90 0.1368758
1030.00 0.1368325
1030.10 0.1367892
1030.20 0.1367459
1030.30 0.1367026
1030.40 0.1366593
1030.50 0.1366161
1030.60 0.1365729
1030.70 0.1365296
1030.80 0.1364864
1030.90 0.1364433
1031.00 0.1364001
1031.10 0.1363569
1031.20 0.1363138
1031.30 0.1362706
1031.40 0.1362277
1031.50 0.1361848
1031.60 0.1361418
1031.70 0.1360989
1031.80 0.136056
1031.90 0.1360132
1032.00 0.1359703
1032.10 0.1359275
1032.20 0.1358846
1032.30 0.1358418
1032.40 0.135799
1032.50 0.1357562
1032.60 0.1357134
1032.70 0.1356707
1032.80 0.1356279
1032.90 0.1355852
1033.00 0.1355424
1033.10 0.1354997
1033.20 0.135457
1033.30 0.1354144
1033.40 0.1353717
1033.50 0.135329
1033.60 0.1352864
1033.70 0.1352438
1033.80 0.1352012
1033.90 0.1351586
1034.00 0.135116
1034.10 0.1350734
1034.20 0.1350309
1034.30 0.1349883
1034.40 0.1349458
1034.50 0.1349033
1034.60 0.1348608
1034.70 0.1348183
1034.80 0.1347758
1034.90 0.1347334
1035.00 0.1346909
1035.10 0.1346485
1035.20 0.1346061
1035.30 0.1345637
1035.40 0.1345213
1035.50 0.1344789
1035.60 0.1344365
1035.70 0.1343942
1035.80 0.1343519
1035.90 0.1343095
1036.00 0.1342672
1036.10 0.1342249
1036.20 0.1341827
1036.30 0.1341404
1036.40 0.1340981
1036.50 0.1340563
1036.60 0.1340151
1036.70 0.1339739
1036.80 0.1339327
1036.90 0.1338916
1037.00 0.1338504
1037.10 0.1338093
1037.20 0.1337682
1037.30 0.1337271
1037.40 0.133686
1037.50 0.1336449
1037.60 0.1336038
1037.70 0.1335627
1037.80 0.1335217
1037.90 0.1334807
1038.00 0.1334397
1038.10 0.1333987
1038.20 0.1333577
1038.30 0.1333167
1038.40 0.1332757
1038.50 0.1332348
1038.60 0.1331938
1038.70 0.1331529
1038.80 0.133112
1038.90 0.1330711
1039.00 0.1330302
1039.10 0.1329894
1039.20 0.1329485
1039.30 0.1329077
1039.40 0.1328668
1039.50 0.132826
1039.60 0.1327852
1039.70 0.1327444
1039.80 0.1327036
1039.90 0.1326629
1040.00 0.1326221
1040.10 0.1325814
1040.20 0.1325407
1040.30 0.1325
1040.40 0.1324593
1040.50 0.1324186
1040.60 0.1323779
1040.70 0.1323372
1040.80 0.1322966
1040.90 0.132256
1041.00 0.1322153
1041.10 0.1321747
1041.20 0.1321341
1041.30 0.1320936
1041.40 0.132053
1041.50 0.1320124
1041.60 0.1319719
1041.70 0.1319307
1041.80 0.1318893
1041.90 0.131848
1042.00 0.1318066
1042.10 0.1317653
1042.20 0.131724
1042.30 0.1316827
1042.40 0.1316414
1042.50 0.1316001
1042.60 0.1315589
1042.70 0.1315176
1042.80 0.1314764
1042.90 0.1314352
1043.00 0.131394
1043.10 0.1313528
1043.20 0.1313116
1043.30 0.1312705
1043.40 0.1312293
1043.50 0.1311882
1043.60 0.131147
1043.70 0.1311059
1043.80 0.1310648
1043.90 0.1310238
1044.00 0.1309827
1044.10 0.1309416
1044.20 0.1309006
1044.30 0.1308596
1044.40 0.1308185
1044.50 0.1307775
1044.60 0.1307366
1044.70 0.1306956
1044.80 0.1306546
1044.90 0.1306137
1045.00 0.1305727
1045.10 0.1305318
1045.20 0.1304909
1045.30 0.13045
1045.40 0.1304091
1045.50 0.1303682
1045.60 0.1303274
1045.70 0.1302865
1045.80 0.1302457
1045.90 0.1302049
1046.00 0.1301641
1046.10 0.1301233
1046.20 0.1300825
1046.30 0.1300418
1046.40 0.130001
1046.50 0.1299603
1046.60 0.1299195
1046.70 0.1298788
1046.80 0.1298381
1046.90 0.1297974
1047.00 0.1297568
1047.10 0.1297161
1047.20 0.1296755
1047.30 0.1296348
1047.40 0.1295942
1047.50 0.1295536
1047.60 0.129513
1047.70 0.1294724
1047.80 0.1294319
1047.90 0.1293913
1048.00 0.1293508
1048.10 0.1293103
1048.20 0.1292697
1048.30 0.1292292
1048.40 0.1291887
1048.50 0.1291483
1048.60 0.1291078
1048.70 0.1290674
1048.80 0.1290269
1048.90 0.1289865
1049.00 0.1289461
1049.10 0.1289057
1049.20 0.1288653
1049.30 0.1288249
1049.40 0.1287846
1049.50 0.1287442
1049.60 0.1287039
1049.70 0.1286636
1049.80 0.1286233
1049.90 0.128583
1050.00 0.1285427
1050.10 0.1285024
1050.20 0.1284622
1050.30 0.128422
1050.40 0.1283817
1050.50 0.1283415
1050.60 0.1283013
1050.70 0.1282611
1050.80 0.1282209
1050.90 0.1281808
1051.00 0.1281406
1051.10 0.1281005
1051.20 0.1280604
1051.30 0.1280203
1051.40 0.1279802
1051.50 0.1279401
1051.60 0.1279
1051.70 0.12786
1051.80 0.1278199
1051.90 0.1277799
1052.00 0.1277399
1052.10 0.1277003
1052.20 0.1276609
1052.30 0.1276216
1052.40 0.1275823
1052.50 0.1275429
1052.60 0.1275036
1052.70 0.1274644
1052.80 0.1274251
1052.90 0.1273858
1053.00 0.1273466
1053.10 0.1273073
1053.20 0.1272681
1053.30 0.1272289
1053.40 0.1271897
1053.50 0.1271505
1053.60 0.1271113
1053.70 0.1270722
1053.80 0.127033
1053.90 0.1269939
1054.00 0.1269548
1054.10 0.1269157
1054.20 0.1268766
1054.30 0.1268375
1054.40 0.1267984
1054.50 0.1267593
1054.60 0.1267203
1054.70 0.1266812
1054.80 0.1266422
1054.90 0.1266032
1055.00 0.1265642
1055.10 0.1265252
1055.20 0.1264863
1055.30 0.1264473
1055.40 0.1264083
1055.50 0.1263694
1055.60 0.1263305
1055.70 0.1262916
1055.80 0.1262527
1055.90 0.1262138
1056.00 0.1261749
1056.10 0.1261361
1056.20 0.1260972
1056.30 0.1260584
1056.40 0.1260195
1056.50 0.1259807
1056.60 0.1259419
1056.70 0.1259031
1056.80 0.1258644
1056.90 0.1258256
1057.00 0.1257869
1057.10 0.1257481
1057.20 0.1257094
1057.30 0.1256707
1057.40 0.125632
1057.50 0.1255933
1057.60 0.1255546
1057.70 0.125516
1057.80 0.1254773
1057.90 0.1254387
1058.00 0.1254
1058.10 0.1253614
1058.20 0.1253228
1058.30 0.1252842
1058.40 0.1252457
1058.50 0.1252071
1058.60 0.1251686
1058.70 0.12513
1058.80 0.1250915
1058.90 0.125053
1059.00 0.1250145
1059.10 0.124976
1059.20 0.1249375
1059.30 0.124899
1059.40 0.1248606
1059.50 0.1248221
1059.60 0.1247837
1059.70 0.1247453
1059.80 0.1247069
1059.90 0.1246685
1060.00 0.1246301
1060.10 0.1245918
1060.20 0.1245534
1060.30 0.1245151
1060.40 0.1244767
1060.50 0.1244384
1060.60 0.1244001
1060.70 0.1243618
1060.80 0.1243235
1060.90 0.1242853
1061.00 0.124247
1061.10 0.1242088
1061.20 0.1241705
1061.30 0.1241323
1061.40 0.1240941
1061.50 0.1240559
1061.60 0.1240177
1061.70 0.1239795
1061.80 0.1239414
1061.90 0.1239032
1062.00 0.1238651
1062.10 0.123827
1062.20 0.1237889
1062.30 0.1237508
1062.40 0.1237127
1062.50 0.1236746
1062.60 0.1236368
1062.70 0.1235994
1062.80 0.123562
1062.90 0.1235246
1063.00 0.1234872
1063.10 0.1234498
1063.20 0.1234124
1063.30 0.1233751
1063.40 0.1233377
1063.50 0.1233004
1063.60 0.1232631
1063.70 0.1232257
1063.80 0.1231884
1063.90 0.1231511
1064.00 0.1231139
1064.10 0.1230766
1064.20 0.1230394
1064.30 0.1230021
1064.40 0.1229649
1064.50 0.1229277
1064.60 0.1228905
1064.70 0.1228533
1064.80 0.1228161
1064.90 0.1227789
1065.00 0.1227417
1065.10 0.1227046
1065.20 0.1226675
1065.30 0.1226303
1065.40 0.1225932
1065.50 0.1225561
1065.60 0.122519
1065.70 0.122482
1065.80 0.1224449
1065.90 0.1224078
1066.00 0.1223708
1066.10 0.1223338
1066.20 0.1222968
1066.30 0.1222597
1066.40 0.1222228
1066.50 0.1221858
1066.60 0.1221488
1066.70 0.1221118
1066.80 0.1220749
1066.90 0.122038
1067.00 0.122001
1067.10 0.1219641
1067.20 0.1219272
1067.30 0.1218903
1067.40 0.1218534
1067.50 0.1218166
1067.60 0.1217797
1067.70 0.1217429
1067.80 0.1217061
1067.90 0.1216689
1068.00 0.1216312
1068.10 0.1215934
1068.20 0.1215557
1068.30 0.121518
1068.40 0.1214803
1068.50 0.1214426
1068.60 0.121405
1068.70 0.1213673
1068.80 0.1213297
1068.90 0.121292
1069.00 0.1212544
1069.10 0.1212168
1069.20 0.1211792
1069.30 0.1211416
1069.40 0.121104
1069.50 0.1210664
1069.60 0.1210289
1069.70 0.1209913
1069.80 0.1209538
1069.90 0.1209163
1070.00 0.1208788
1070.10 0.1208413
1070.20 0.1208038
1070.30 0.1207663
1070.40 0.1207289
1070.50 0.1206914
1070.60 0.120654
1070.70 0.1206166
1070.80 0.1205792
1070.90 0.1205418
1071.00 0.1205044
1071.10 0.120467
1071.20 0.1204296
1071.30 0.1203923
1071.40 0.1203549
1071.50 0.1203176
1071.60 0.1202803
1071.70 0.120243
1071.80 0.1202057
1071.90 0.1201684
1072.00 0.1201312
1072.10 0.1200939
1072.20 0.1200567
1072.30 0.1200194
1072.40 0.1199822
1072.50 0.119945
1072.60 0.1199078
1072.70 0.1198706
1072.80 0.1198334
1072.90 0.1197963
1073.00 0.1197591
1073.10 0.119722
1073.20 0.1196851
1073.30 0.119649
1073.40 0.119613
1073.50 0.119577
1073.60 0.1195409
1073.70 0.1195049
1073.80 0.1194689
1073.90 0.119433
1074.00 0.119397
1074.10 0.119361
1074.20 0.1193251
1074.30 0.1192891
1074.40 0.1192532
1074.50 0.1192173
1074.60 0.1191814
1074.70 0.1191455
1074.80 0.1191096
1074.90 0.1190738
1075.00 0.1190379
1075.10 0.1190021
1075.20 0.1189662
1075.30 0.1189304
1075.40 0.1188946
1075.50 0.1188588
1075.60 0.118823
1075.70 0.1187872
1075.80 0.1187515
1075.90 0.1187157
1076.00 0.1186799
1076.10 0.1186442
1076.20 0.1186085
1076.30 0.1185728
1076.40 0.1185371
1076.50 0.1185014
1076.60 0.1184657
1076.70 0.11843
1076.80 0.1183944
1076.90 0.1183587
1077.00 0.1183231
1077.10 0.1182875
1077.20 0.1182519
1077.30 0.1182163
1077.40 0.1181807
1077.50 0.1181451
1077.60 0.1181096
1077.70 0.118074
1077.80 0.1180385
1077.90 0.1180029
1078.00 0.1179674
1078.10 0.1179319
1078.20 0.1178964
1078.30 0.1178609
1078.40 0.1178254
1078.50 0.11779
1078.60 0.1177545
1078.70 0.1177191
1078.80 0.1176836
1078.90 0.1176482
1079.00 0.1176128
1079.10 0.1175774
1079.20 0.117542
1079.30 0.1175066
1079.40 0.1174713
1079.50 0.1174359
1079.60 0.1174006
1079.70 0.1173652
1079.80 0.1173299
1079.90 0.1172946
1080.00 0.1172593
1080.10 0.117224
1080.20 0.1171887
1080.30 0.1171535
1080.40 0.1171182
1080.50 0.117083
1080.60 0.1170478
1080.70 0.1170125
1080.80 0.1169773
1080.90 0.1169421
1081.00 0.1169069
1081.10 0.1168718
1081.20 0.1168366
1081.30 0.1168014
1081.40 0.1167663
1081.50 0.1167312
1081.60 0.116696
1081.70 0.1166609
1081.80 0.1166258
1081.90 0.1165907
1082.00 0.1165556
1082.10 0.1165206
1082.20 0.1164855
1082.30 0.1164505
1082.40 0.1164154
1082.50 0.1163804
1082.60 0.1163454
1082.70 0.1163104
1082.80 0.1162754
1082.90 0.1162404
1083.00 0.1162055
1083.10 0.1161705
1083.20 0.1161356
1083.30 0.1161006
1083.40 0.1160657
1083.50 0.1160308
1083.60 0.1159959
1083.70 0.115961
1083.80 0.1159261
1083.90 0.1158912
1084.00 0.1158557
1084.10 0.1158201
1084.20 0.1157845
1084.30 0.1157489
1084.40 0.1157134
1084.50 0.1156778
1084.60 0.1156422
1084.70 0.1156067
1084.80 0.1155712
1084.90 0.1155357
1085.00 0.1155002
1085.10 0.1154647
1085.20 0.1154292
1085.30 0.1153937
1085.40 0.1153583
1085.50 0.1153228
1085.60 0.1152874
1085.70 0.1152519
1085.80 0.1152165
1085.90 0.1151811
1086.00 0.1151457
1086.10 0.1151104
1086.20 0.115075
1086.30 0.1150396
1086.40 0.1150043
1086.50 0.1149689
1086.60 0.1149336
1086.70 0.1148983
1086.80 0.114863
1086.90 0.1148277
1087.00 0.1147924
1087.10 0.1147571
1087.20 0.1147219
1087.30 0.1146866
1087.40 0.1146514
1087.50 0.1146162
1087.60 0.114581
1087.70 0.1145457
1087.80 0.1145106
1087.90 0.1144754
1088.00 0.1144402
1088.10 0.114405
1088.20 0.1143699
1088.30 0.1143347
1088.40 0.1142996
1088.50 0.1142645
1088.60 0.1142294
1088.70 0.1141943
1088.80 0.1141592
1088.90 0.1141241
1089.00 0.1140891
1089.10 0.114054
1089.20 0.114019
1089.30 0.113984
1089.40 0.1139496
1089.50 0.1139154
1089.60 0.1138813
1089.70 0.1138472
1089.80 0.1138131
1089.90 0.113779
1090.00 0.1137449
1090.10 0.1137109
1090.20 0.1136768
1090.30 0.1136428
1090.40 0.1136087
1090.50 0.1135747
1090.60 0.1135407
1090.70 0.1135067
1090.80 0.1134727
1090.90 0.1134387
1091.00 0.1134048
1091.10 0.1133708
1091.20 0.1133368
1091.30 0.1133029
1091.40 0.113269
1091.50 0.1132351
1091.60 0.1132011
1091.70 0.1131673
1091.80 0.1131334
1091.90 0.1130995
1092.00 0.1130656
1092.10 0.1130318
1092.20 0.1129979
1092.30 0.1129641
1092.40 0.1129303
1092.50 0.1128965
1092.60 0.1128627
1092.70 0.1128289
1092.80 0.1127951
1092.90 0.1127613
1093.00 0.1127275
1093.10 0.1126938
1093.20 0.1126601
1093.30 0.1126263
1093.40 0.1125926
1093.50 0.1125589
1093.60 0.1125252
1093.70 0.1124915
1093.80 0.1124578
1093.90 0.1124242
1094.00 0.1123905
1094.10 0.1123569
1094.20 0.1123232
1094.30 0.1122896
1094.40 0.112256
1094.50 0.1122224
1094.60 0.1121888
1094.70 0.1121552
1094.80 0.1121217
1094.90 0.1120883
1095.00 0.1120549
1095.10 0.1120214
1095.20 0.111988
1095.30 0.1119547
1095.40 0.1119213
1095.50 0.1118879
1095.60 0.1118546
1095.70 0.1118212
1095.80 0.1117879
1095.90 0.1117545
1096.00 0.1117212
1096.10 0.1116879
1096.20 0.1116546
1096.30 0.1116213
1096.40 0.1115881
1096.50 0.1115548
1096.60 0.1115215
1096.70 0.1114883
1096.80 0.1114551
1096.90 0.1114218
1097.00 0.1113886
1097.10 0.1113554
1097.20 0.1113222
1097.30 0.111289
1097.40 0.1112559
1097.50 0.1112227
1097.60 0.1111895
1097.70 0.1111564
1097.80 0.1111233
1097.90 0.1110901
1098.00 0.111057
1098.10 0.1110239
1098.20 0.1109908
1098.30 0.1109578
1098.40 0.1109247
1098.50 0.1108916
1098.60 0.1108586
1098.70 0.1108255
1098.80 0.1107925
1098.90 0.1107595
1099.00 0.1107265
1099.10 0.1106935
1099.20 0.1106605
1099.30 0.1106275
1099.40 0.1105945
1099.50 0.1105616
1099.60 0.1105286
1099.70 0.1104957
1099.80 0.1104628
1099.90 0.1104298
1100.00 0.1103969
1100.10 0.110364
1100.20 0.1103311
1100.30 0.1102983
1100.40 0.1102654
1100.50 0.1102325
1100.60 0.1101997
1100.70 0.1101669
1100.80 0.110134
1100.90 0.1101012
1101.00 0.1100684
1101.10 0.1100356
1101.20 0.1100028
1101.30 0.10997
1101.40 0.1099373
1101.50 0.1099045
1101.60 0.1098718
1101.70 0.109839
1101.80 0.1098063
1101.90 0.1097736
1102.00 0.1097409
1102.10 0.1097082
1102.20 0.1096755
1102.30 0.1096428
1102.40 0.1096102
1102.50 0.1095775
1102.60 0.1095449
1102.70 0.1095122
1102.80 0.1094796
1102.90 0.109447
1103.00 0.1094144
1103.10 0.1093818
1103.20 0.1093492
1103.30 0.1093166
1103.40 0.109284
1103.50 0.1092515
1103.60 0.1092189
1103.70 0.1091864
1103.80 0.1091539
1103.90 0.1091214
1104.00 0.1090889
1104.10 0.1090564
1104.20 0.1090239
1104.30 0.1089914
1104.40 0.1089589
1104.50 0.1089265
1104.60 0.108894
1104.70 0.1088616
1104.80 0.1088292
1104.90 0.1087968
1105.00 0.1087643
1105.10 0.108732
1105.20 0.1086996
1105.30 0.1086672
1105.40 0.1086348
1105.50 0.1086025
1105.60 0.1085701
1105.70 0.1085378
1105.80 0.1085052
1105.90 0.1084725
1106.00 0.1084399
1106.10 0.1084074
1106.20 0.1083748
1106.30 0.1083422
1106.40 0.1083096
1106.50 0.1082771
1106.60 0.1082446
1106.70 0.108212
1106.80 0.1081795
1106.90 0.108147
1107.00 0.1081145
1107.10 0.108082
1107.20 0.1080495
1107.30 0.108017
1107.40 0.1079846
1107.50 0.1079521
1107.60 0.1079197
1107.70 0.1078873
1107.80 0.1078548
1107.90 0.1078224
1108.00 0.10779
1108.10 0.1077576
1108.20 0.1077253
1108.30 0.1076929
1108.40 0.1076605
1108.50 0.1076282
1108.60 0.1075958
1108.70 0.1075635
1108.80 0.1075312
1108.90 0.1074989
1109.00 0.1074666
1109.10 0.1074343
1109.20 0.107402
1109.30 0.1073697
1109.40 0.1073375
1109.50 0.1073052
1109.60 0.107273
1109.70 0.1072407
1109.80 0.1072085
1109.90 0.1071763
1110.00 0.1071441
1110.10 0.1071119
1110.20 0.1070797
1110.30 0.1070475
1110.40 0.1070154
1110.50 0.1069832
1110.60 0.1069511
1110.70 0.1069189
1110.80 0.1068868
1110.90 0.1068547
1111.00 0.1068226
1111.10 0.1067905
1111.20 0.1067584
1111.30 0.1067263
1111.40 0.1066943
1111.50 0.1066622
1111.60 0.1066302
1111.70 0.1065981
1111.80 0.1065661
1111.90 0.1065341
1112.00 0.1065021
1112.10 0.1064701
1112.20 0.1064381
1112.30 0.1064061
1112.40 0.1063742
1112.50 0.1063422
1112.60 0.1063103
1112.70 0.1062783
1112.80 0.1062464
1112.90 0.1062145
1113.00 0.1061826
1113.10 0.1061507
1113.20 0.1061188
1113.30 0.1060869
1113.40 0.106055
1113.50 0.1060232
1113.60 0.1059913
1113.70 0.1059595
1113.80 0.1059277
1113.90 0.1058958
1114.00 0.105864
1114.10 0.1058322
1114.20 0.1058004
1114.30 0.1057686
1114.40 0.1057369
1114.50 0.1057051
1114.60 0.1056734
1114.70 0.1056416
1114.80 0.1056099
1114.90 0.1055782
1115.00 0.1055464
1115.10 0.1055147
1115.20 0.105483
1115.30 0.1054514
1115.40 0.1054197
1115.50 0.105388
1115.60 0.1053564
1115.70 0.1053247
1115.80 0.1052931
1115.90 0.1052614
1116.00 0.1052298
1116.10 0.1051982
1116.20 0.1051666
1116.30 0.105135
1116.40 0.1051035
1116.50 0.1050719
1116.60 0.1050403
1116.70 0.1050088
1116.80 0.1049775
1116.90 0.1049465
1117.00 0.1049155
1117.10 0.1048845
1117.20 0.1048535
1117.30 0.1048226
1117.40 0.1047916
1117.50 0.1047607
1117.60 0.1047298
1117.70 0.1046988
1117.80 0.1046679
1117.90 0.104637
1118.00 0.1046061
1118.10 0.1045752
1118.20 0.1045444
1118.30 0.1045135
1118.40 0.1044826
1118.50 0.1044518
1118.60 0.1044209
1118.70 0.1043901
1118.80 0.1043593
1118.90 0.1043285
1119.00 0.1042977
1119.10 0.1042669
1119.20 0.1042361
1119.30 0.1042053
1119.40 0.1041746
1119.50 0.1041438
1119.60 0.1041131
1119.70 0.1040823
1119.80 0.1040516
1119.90 0.1040209
1120.00 0.1039902
1120.10 0.1039595
1120.20 0.1039288
1120.30 0.1038981
1120.40 0.1038675
1120.50 0.1038368
1120.60 0.1038061
1120.70 0.1037755
1120.80 0.1037449
1120.90 0.1037142
1121.00 0.1036836
1121.10 0.103653
1121.20 0.1036224
1121.30 0.1035918
1121.40 0.1035613
1121.50 0.1035307
1121.60 0.1035001
1121.70 0.1034696
1121.80 0.103439
1121.90 0.1034085
1122.00 0.103378
1122.10 0.1033475
1122.20 0.103317
1122.30 0.1032865
1122.40 0.103256
1122.50 0.1032255
1122.60 0.103195
1122.70 0.1031646
1122.80 0.1031341
1122.90 0.1031037
1123.00 0.1030733
1123.10 0.1030428
1123.20 0.1030124
1123.30 0.102982
1123.40 0.1029516
1123.50 0.1029212
1123.60 0.1028909
1123.70 0.1028605
1123.80 0.1028301
1123.90 0.1027998
1124.00 0.1027694
1124.10 0.1027391
1124.20 0.1027088
1124.30 0.1026785
1124.40 0.1026482
1124.50 0.1026179
1124.60 0.1025876
1124.70 0.1025573
1124.80 0.1025271
1124.90 0.1024968
1125.00 0.1024665
1125.10 0.1024363
1125.20 0.1024061
1125.30 0.1023759
1125.40 0.1023456
1125.50 0.1023154
1125.60 0.1022852
1125.70 0.1022551
1125.80 0.1022249
1125.90 0.1021947
1126.00 0.1021646
1126.10 0.1021344
1126.20 0.1021043
1126.30 0.1020741
1126.40 0.102044
1126.50 0.1020139
1126.60 0.1019838
1126.70 0.1019537
1126.80 0.1019236
1126.90 0.1018936
1127.00 0.1018635
1127.10 0.1018334
1127.20 0.1018034
1127.30 0.1017733
1127.40 0.1017433
1127.50 0.1017133
1127.60 0.1016833
1127.70 0.1016533
1127.80 0.1016233
1127.90 0.1015933
1128.00 0.1015634
1128.10 0.1015336
1128.20 0.1015037
1128.30 0.1014739
1128.40 0.1014441
1128.50 0.1014143
1128.60 0.1013845
1128.70 0.1013547
1128.80 0.1013249
1128.90 0.1012951
1129.00 0.1012654
1129.10 0.1012356
1129.20 0.1012058
1129.30 0.1011761
1129.40 0.1011464
1129.50 0.1011167
1129.60 0.1010869
1129.70 0.1010572
1129.80 0.1010276
1129.90 0.1009979
1130.00 0.1009682
1130.10 0.1009385
1130.20 0.1009089
1130.30 0.1008792
1130.40 0.1008496
1130.50 0.1008199
1130.60 0.1007903
1130.70 0.1007607
1130.80 0.1007311
1130.90 0.1007015
1131.00 0.1006719
1131.10 0.1006423
1131.20 0.1006128
1131.30 0.1005832
1131.40 0.1005537
1131.50 0.1005241
1131.60 0.1004946
1131.70 0.1004651
1131.80 0.1004355
1131.90 0.100406
1132.00 0.1003765
1132.10 0.100347
1132.20 0.1003176
1132.30 0.1002881
1132.40 0.1002586
1132.50 0.1002292
1132.60 0.1001997
1132.70 0.1001703
1132.80 0.1001409
1132.90 0.1001114
1133.00 0.100082
1133.10 0.1000526
1133.20 0.1000232
1133.30 0.09999386
1133.40 0.09996449
1133.50 0.09993512
1133.60 0.09990577
1133.70 0.09987642
1133.80 0.09984708
1133.90 0.09981775
1134.00 0.09978843
1134.10 0.09975911
1134.20 0.09972981
1134.30 0.09970051
1134.40 0.09967123
1134.50 0.09964195
1134.60 0.09961268
1134.70 0.09958342
1134.80 0.09955417
1134.90 0.09952492
1135.00 0.09949569
1135.10 0.09946646
1135.20 0.09943725
1135.30 0.09940804
1135.40 0.09937884
1135.50 0.09934965
1135.60 0.09932047
1135.70 0.0992913
1135.80 0.09926213
1135.90 0.09923298
1136.00 0.09920383
1136.10 0.09917469
1136.20 0.09914556
1136.30 0.09911644
1136.40 0.09908733
1136.50 0.09905823
1136.60 0.09902913
1136.70 0.09900005
1136.80 0.09897097
1136.90 0.0989419
1137.00 0.09891284
1137.10 0.09888379
1137.20 0.09885475
1137.30 0.09882572
1137.40 0.09879669
1137.50 0.09876768
1137.60 0.09873867
1137.70 0.09870967
1137.80 0.09868068
1137.90 0.0986517
1138.00 0.09862272
1138.10 0.09859376
1138.20 0.09856481
1138.30 0.09853586
1138.40 0.09850692
1138.50 0.09847799
1138.60 0.09844907
1138.70 0.09842016
1138.80 0.09839125
1138.90 0.09836236
1139.00 0.09833347
1139.10 0.09830459
1139.20 0.09827573
1139.30 0.09824735
1139.40 0.098219
1139.50 0.09819065
1139.60 0.09816231
1139.70 0.09813398
1139.80 0.09810566
1139.90 0.09807735
1140.00 0.09804905
1140.10 0.09802075
1140.20 0.09799246
1140.30 0.09796418
1140.40 0.09793591
1140.50 0.09790765
1140.60 0.0978794
1140.70 0.09785115
1140.80 0.09782292
1140.90 0.09779469
1141.00 0.09776647
1141.10 0.09773826
1141.20 0.09771005
1141.30 0.09768186
1141.40 0.09765367
1141.50 0.09762549
1141.60 0.09759732
1141.70 0.09756916
1141.80 0.09754101
1141.90 0.09751286
1142.00 0.09748473
1142.10 0.0974566
1142.20 0.09742848
1142.30 0.09740037
1142.40 0.09737227
1142.50 0.09734417
1142.60 0.09731609
1142.70 0.09728801
1142.80 0.09725994
1142.90 0.09723188
1143.00 0.09720382
1143.10 0.09717578
1143.20 0.09714774
1143.30 0.09711972
1143.40 0.0970917
1143.50 0.09706368
1143.60 0.09703568
1143.70 0.09700769
1143.80 0.0969797
1143.90 0.09695172
1144.00 0.09692375
1144.10 0.09689579
1144.20 0.09686784
1144.30 0.09683989
1144.40 0.09681196
1144.50 0.09678403
1144.60 0.09675611
1144.70 0.0967282
1144.80 0.09670029
1144.90 0.0966724
1145.00 0.09664451
1145.10 0.09661663
1145.20 0.09658876
1145.30 0.0965609
1145.40 0.09653305
1145.50 0.0965052
1145.60 0.09647736
1145.70 0.09644953
1145.80 0.09642171
1145.90 0.0963939
1146.00 0.0963661
1146.10 0.0963383
1146.20 0.09631051
1146.30 0.09628273
1146.40 0.09625496
1146.50 0.0962272
1146.60 0.09619944
1146.70 0.0961717
1146.80 0.09614396
1146.90 0.09611623
1147.00 0.09608851
1147.10 0.09606079
1147.20 0.09603309
1147.30 0.09600539
1147.40 0.0959777
1147.50 0.09595002
1147.60 0.09592235
1147.70 0.09589468
1147.80 0.09586702
1147.90 0.09583938
1148.00 0.09581174
1148.10 0.0957841
1148.20 0.09575648
1148.30 0.09572886
1148.40 0.09570126
1148.50 0.09567366
1148.60 0.09564607
1148.70 0.09561848
1148.80 0.09559091
1148.90 0.09556334
1149.00 0.09553578
1149.10 0.09550823
1149.20 0.09548069
1149.30 0.09545316
1149.40 0.09542563
1149.50 0.09539811
1149.60 0.0953706
1149.70 0.0953431
1149.80 0.09531561
1149.90 0.09528812
1150.00 0.09526064
1150.10 0.09523317
1150.20 0.09520571
1150.30 0.09517826
1150.40 0.09515082
1150.50 0.09512338
1150.60 0.09509593
1150.70 0.09506825
1150.80 0.09504057
1150.90 0.0950129
1151.00 0.09498524
1151.10 0.09495758
1151.20 0.09492994
1151.30 0.0949023
1151.40 0.09487467
1151.50 0.09484705
1151.60 0.09481944
1151.70 0.09479183
1151.80 0.09476424
1151.90 0.09473665
1152.00 0.09470907
1152.10 0.0946815
1152.20 0.09465393
1152.30 0.09462638
1152.40 0.09459883
1152.50 0.09457129
1152.60 0.09454376
1152.70 0.09451623
1152.80 0.09448872
1152.90 0.09446121
1153.00 0.09443371
1153.10 0.09440622
1153.20 0.09437874
1153.30 0.09435126
1153.40 0.0943238
1153.50 0.09429634
1153.60 0.09426889
1153.70 0.09424145
1153.80 0.09421401
1153.90 0.09418659
1154.00 0.09415917
1154.10 0.09413176
1154.20 0.09410436
1154.30 0.09407696
1154.40 0.09404958
1154.50 0.0940222
1154.60 0.09399483
1154.70 0.09396747
1154.80 0.09394012
1154.90 0.09391277
1155.00 0.09388544
1155.10 0.09385811
1155.20 0.09383079
1155.30 0.09380347
1155.40 0.09377617
1155.50 0.09374887
1155.60 0.09372158
1155.70 0.0936943
1155.80 0.09366703
1155.90 0.09363976
1156.00 0.09361251
1156.10 0.09358526
1156.20 0.09355802
1156.30 0.09353078
1156.40 0.09350356
1156.50 0.09347635
1156.60 0.09344914
1156.70 0.09342195
1156.80 0.09339476
1156.90 0.09336758
1157.00 0.09334041
1157.10 0.09331324
1157.20 0.09328608
1157.30 0.09325894
1157.40 0.0932318
1157.50 0.09320466
1157.60 0.09317754
1157.70 0.09315042
1157.80 0.09312331
1157.90 0.09309621
1158.00 0.09306912
1158.10 0.09304203
1158.20 0.09301496
1158.30 0.09298789
1158.40 0.09296083
1158.50 0.09293377
1158.60 0.09290673
1158.70 0.09287969
1158.80 0.09285266
1158.90 0.09282564
1159.00 0.09279863
1159.10 0.09277162
1159.20 0.09274463
1159.30 0.09271764
1159.40 0.09269065
1159.50 0.09266368
1159.60 0.09263672
1159.70 0.09260976
1159.80 0.09258281
1159.90 0.09255587
1160.00 0.09252893
1160.10 0.09250201
1160.20 0.09247509
1160.30 0.09244818
1160.40 0.09242127
1160.50 0.09239438
1160.60 0.09236749
1160.70 0.09234061
1160.80 0.09231374
1160.90 0.09228688
1161.00 0.09226003
1161.10 0.09223318
1161.20 0.09220634
1161.30 0.09217951
1161.40 0.09215268
1161.50 0.09212587
1161.60 0.09209906
1161.70 0.09207226
1161.80 0.09204547
1161.90 0.09201869
1162.00 0.09199191
1162.10 0.09196514
1162.20 0.09193921
1162.30 0.09191328
1162.40 0.09188736
1162.50 0.09186145
1162.60 0.09183555
1162.70 0.09180965
1162.80 0.09178377
1162.90 0.09175789
1163.00 0.09173201
1163.10 0.09170615
1163.20 0.09168029
1163.30 0.09165444
1163.40 0.0916286
1163.50 0.09160276
1163.60 0.09157693
1163.70 0.09155111
1163.80 0.0915253
1163.90 0.0914995
1164.00 0.0914737
1164.10 0.09144791
1164.20 0.09142213
1164.30 0.09139635
1164.40 0.09137058
1164.50 0.09134482
1164.60 0.09131907
1164.70 0.09129333
1164.80 0.09126759
1164.90 0.09124186
1165.00 0.09121614
1165.10 0.09119042
1165.20 0.09116471
1165.30 0.09113901
1165.40 0.09111332
1165.50 0.09108764
1165.60 0.09106196
1165.70 0.09103629
1165.80 0.09101063
1165.90 0.09098497
1166.00 0.09095932
1166.10 0.09093368
1166.20 0.09090805
1166.30 0.09088242
1166.40 0.09085681
1166.50 0.0908312
1166.60 0.09080559
1166.70 0.09078
1166.80 0.09075441
1166.90 0.09072883
1167.00 0.09070326
1167.10 0.09067769
1167.20 0.09065213
1167.30 0.09062658
1167.40 0.09060104
1167.50 0.0905755
1167.60 0.09054997
1167.70 0.09052445
1167.80 0.09049894
1167.90 0.09047343
1168.00 0.09044729
1168.10 0.09042108
1168.20 0.09039489
1168.30 0.0903687
1168.40 0.09034252
1168.50 0.09031634
1168.60 0.09029018
1168.70 0.09026402
1168.80 0.09023787
1168.90 0.09021172
1169.00 0.09018559
1169.10 0.09015946
1169.20 0.09013334
1169.30 0.09010723
1169.40 0.09008112
1169.50 0.09005502
1169.60 0.09002893
1169.70 0.09000285
1169.80 0.08997678
1169.90 0.08995071
1170.00 0.08992465
1170.10 0.0898986
1170.20 0.08987255
1170.30 0.08984652
1170.40 0.08982049
1170.50 0.08979447
1170.60 0.08976845
1170.70 0.08974244
1170.80 0.08971645
1170.90 0.08969045
1171.00 0.08966447
1171.10 0.08963849
1171.20 0.08961253
1171.30 0.08958656
1171.40 0.08956061
1171.50 0.08953466
1171.60 0.08950873
1171.70 0.0894828
1171.80 0.08945687
1171.90 0.08943096
1172.00 0.08940505
1172.10 0.08937915
1172.20 0.08935325
1172.30 0.08932737
1172.40 0.08930149
1172.50 0.08927562
1172.60 0.08924976
1172.70 0.0892239
1172.80 0.08919805
1172.90 0.08917221
1173.00 0.08914638
1173.10 0.08912055
1173.20 0.08909474
1173.30 0.08906893
1173.40 0.08904312
1173.50 0.08901733
1173.60 0.08899154
1173.70 0.08896576
1173.80 0.08894062
1173.90 0.08891566
1174.00 0.0888907
1174.10 0.08886576
1174.20 0.08884082
1174.30 0.08881588
1174.40 0.08879096
1174.50 0.08876604
1174.60 0.08874113
1174.70 0.08871622
1174.80 0.08869133
1174.90 0.08866644
1175.00 0.08864155
1175.10 0.08861668
1175.20 0.08859181
1175.30 0.08856695
1175.40 0.0885421
1175.50 0.08851725
1175.60 0.08849241
1175.70 0.08846758
1175.80 0.08844275
1175.90 0.08841793
1176.00 0.08839312
1176.10 0.08836832
1176.20 0.08834352
1176.30 0.08831873
1176.40 0.08829395
1176.50 0.08826918
1176.60 0.08824441
1176.70 0.08821965
1176.80 0.08819489
1176.90 0.08817015
1177.00 0.08814541
1177.10 0.08812067
1177.20 0.08809595
1177.30 0.08807123
1177.40 0.08804652
1177.50 0.08802182
1177.60 0.08799712
1177.70 0.08797243
1177.80 0.08794775
1177.90 0.08792307
1178.00 0.0878984
1178.10 0.08787374
1178.20 0.08784909
1178.30 0.08782444
1178.40 0.0877998
1178.50 0.08777517
1178.60 0.08775054
1178.70 0.08772593
1178.80 0.08770132
1178.90 0.08767671
1179.00 0.08765211
1179.10 0.08762752
1179.20 0.08760294
1179.30 0.08757836
1179.40 0.0875538
1179.50 0.08752923
1179.60 0.0875046
1179.70 0.08747936
1179.80 0.08745413
1179.90 0.08742891
1180.00 0.08740369
1180.10 0.08737848
1180.20 0.08735327
1180.30 0.08732808
1180.40 0.08730289
1180.50 0.08727771
1180.60 0.08725253
1180.70 0.08722737
1180.80 0.08720221
1180.90 0.08717706
1181.00 0.08715191
1181.10 0.08712677
1181.20 0.08710164
1181.30 0.08707652
1181.40 0.0870514
1181.50 0.08702629
1181.60 0.08700119
1181.70 0.0869761
1181.80 0.08695101
1181.90 0.08692593
1182.00 0.08690086
1182.10 0.08687579
1182.20 0.08685074
1182.30 0.08682569
1182.40 0.08680064
1182.50 0.08677561
1182.60 0.08675058
1182.70 0.08672555
1182.80 0.08670054
1182.90 0.08667553
1183.00 0.08665053
1183.10 0.08662554
1183.20 0.08660055
1183.30 0.08657557
1183.40 0.0865506
1183.50 0.08652564
1183.60 0.08650068
1183.70 0.08647573
1183.80 0.08645079
1183.90 0.08642585
1184.00 0.08640093
1184.10 0.08637601
1184.20 0.08635109
1184.30 0.08632618
1184.40 0.08630129
1184.50 0.08627639
1184.60 0.08625151
1184.70 0.08622663
1184.80 0.08620176
1184.90 0.0861769
1185.00 0.08615204
1185.10 0.08612719
1185.20 0.08610235
1185.30 0.08607751
1185.40 0.08605269
1185.50 0.08602819
1185.60 0.08600416
1185.70 0.08598013
1185.80 0.08595612
1185.90 0.0859321
1186.00 0.0859081
1186.10 0.0858841
1186.20 0.08586011
1186.30 0.08583612
1186.40 0.08581215
1186.50 0.08578818
1186.60 0.08576421
1186.70 0.08574025
1186.80 0.0857163
1186.90 0.08569236
1187.00 0.08566842
1187.10 0.08564449
1187.20 0.08562057
1187.30 0.08559666
1187.40 0.08557275
1187.50 0.08554884
1187.60 0.08552495
1187.70 0.08550106
1187.80 0.08547718
1187.90 0.0854533
1188.00 0.08542944
1188.10 0.08540557
1188.20 0.08538172
1188.30 0.08535787
1188.40 0.08533403
1188.50 0.0853102
1188.60 0.08528637
1188.70 0.08526255
1188.80 0.08523874
1188.90 0.08521493
1189.00 0.08519113
1189.10 0.08516734
1189.20 0.08514355
1189.30 0.08511977
1189.40 0.085096
1189.50 0.08507223
1189.60 0.08504847
1189.70 0.08502472
1189.80 0.08500097
1189.90 0.08497724
1190.00 0.0849535
1190.10 0.08492978
1190.20 0.08490606
1190.30 0.08488235
1190.40 0.08485864
1190.50 0.08483494
1190.60 0.08481125
1190.70 0.08478757
1190.80 0.08476389
1190.90 0.08474022
1191.00 0.08471655
1191.10 0.0846929
1191.20 0.08466925
1191.30 0.0846456
1191.40 0.08462186
1191.50 0.08459756
1191.60 0.08457326
1191.70 0.08454897
1191.80 0.08452469
1191.90 0.08450041
1192.00 0.08447614
1192.10 0.08445188
1192.20 0.08442763
1192.30 0.08440338
1192.40 0.08437914
1192.50 0.0843549
1192.60 0.08433067
1192.70 0.08430645
1192.80 0.08428224
1192.90 0.08425803
1193.00 0.08423383
1193.10 0.08420964
1193.20 0.08418545
1193.30 0.08416128
1193.40 0.0841371
1193.50 0.08411294
1193.60 0.08408878
1193.70 0.08406463
1193.80 0.08404048
1193.90 0.08401635
1194.00 0.08399222
1194.10 0.08396809
1194.20 0.08394398
1194.30 0.08391987
1194.40 0.08389576
1194.50 0.08387167
1194.60 0.08384758
1194.70 0.08382349
1194.80 0.08379942
1194.90 0.08377535
1195.00 0.08375129
1195.10 0.08372723
1195.20 0.08370319
1195.30 0.08367914
1195.40 0.08365511
1195.50 0.08363108
1195.60 0.08360706
1195.70 0.08358305
1195.80 0.08355904
1195.90 0.08353504
1196.00 0.08351105
1196.10 0.08348706
1196.20 0.08346308
1196.30 0.08343911
1196.40 0.08341515
1196.50 0.08339119
1196.60 0.08336724
1196.70 0.08334329
1196.80 0.08331935
1196.90 0.08329542
1197.00 0.0832715
1197.10 0.08324758
1197.20 0.08322367
1197.30 0.08319976
1197.40 0.08317654
1197.50 0.08315341
1197.60 0.08313028
1197.70 0.08310716
1197.80 0.08308405
1197.90 0.08306095
1198.00 0.08303785
1198.10 0.08301476
1198.20 0.08299168
1198.30 0.0829686
1198.40 0.08294553
1198.50 0.08292246
1198.60 0.0828994
1198.70 0.08287635
1198.80 0.08285331
1198.90 0.08283027
1199.00 0.08280724
1199.10 0.08278421
1199.20 0.08276119
1199.30 0.08273818
1199.40 0.08271517
1199.50 0.08269217
1199.60 0.08266918
1199.70 0.08264619
1199.80 0.08262321
1199.90 0.08260024
1200.00 0.08257727
