# Version 2.1 - nm, norm@500 to 1, cut digits, bergeron_He_15000_80.dat_15000
# Wavelength(nm)  Flambda(ergs/cm^s/s/nm)
300.00 3.337513
300.10 3.335337
300.20 3.333116
300.30 3.330933
300.40 3.328994
300.50 3.327057
300.60 3.325122
300.70 3.323189
300.80 3.321258
300.90 3.319329
301.00 3.317401
301.10 3.315476
301.20 3.313552
301.30 3.31163
301.40 3.30971
301.50 3.307791
301.60 3.305875
301.70 3.30396
301.80 3.302047
301.90 3.300136
302.00 3.298227
302.10 3.296071
302.20 3.29389
302.30 3.291711
302.40 3.289534
302.50 3.28736
302.60 3.285187
302.70 3.283017
302.80 3.280849
302.90 3.278683
303.00 3.276519
303.10 3.274358
303.20 3.272198
303.30 3.27006
303.40 3.268098
303.50 3.266138
303.60 3.264179
303.70 3.262222
303.80 3.260268
303.90 3.258315
304.00 3.256364
304.10 3.254414
304.20 3.252467
304.30 3.250522
304.40 3.248578
304.50 3.246636
304.60 3.244524
304.70 3.242395
304.80 3.240267
304.90 3.238142
305.00 3.236019
305.10 3.233898
305.20 3.23178
305.30 3.229663
305.40 3.227548
305.50 3.225435
305.60 3.223325
305.70 3.221216
305.80 3.21911
305.90 3.217006
306.00 3.214903
306.10 3.212803
306.20 3.210705
306.30 3.208609
306.40 3.206587
306.50 3.20459
306.60 3.202594
306.70 3.200599
306.80 3.198607
306.90 3.196617
307.00 3.194629
307.10 3.192642
307.20 3.190658
307.30 3.188675
307.40 3.186694
307.50 3.184716
307.60 3.182739
307.70 3.180764
307.80 3.178791
307.90 3.176819
308.00 3.17485
308.10 3.172883
308.20 3.170917
308.30 3.168953
308.40 3.166992
308.50 3.165032
308.60 3.163074
308.70 3.161118
308.80 3.159139
308.90 3.157094
309.00 3.155051
309.10 3.15301
309.20 3.150971
309.30 3.148934
309.40 3.146866
309.50 3.144598
309.60 3.142333
309.70 3.14007
309.80 3.13781
309.90 3.135551
310.00 3.133295
310.10 3.131041
310.20 3.12879
310.30 3.126541
310.40 3.124405
310.50 3.122393
310.60 3.120383
310.70 3.118375
310.80 3.116368
310.90 3.114364
311.00 3.112361
311.10 3.110361
311.20 3.108362
311.30 3.106365
311.40 3.104371
311.50 3.102378
311.60 3.100387
311.70 3.098398
311.80 3.096411
311.90 3.094426
312.00 3.092442
312.10 3.090461
312.20 3.088481
312.30 3.085516
312.40 3.082307
312.50 3.080335
312.60 3.078365
312.70 3.076396
312.80 3.074429
312.90 3.072465
313.00 3.070502
313.10 3.068541
313.20 3.066581
313.30 3.064545
313.40 3.062286
313.50 3.060029
313.60 3.057774
313.70 3.055521
313.80 3.053271
313.90 3.051023
314.00 3.048777
314.10 3.046269
314.20 3.043763
314.30 3.041259
314.40 3.038758
314.50 3.03626
314.60 3.033764
314.70 3.031271
314.80 3.028927
314.90 3.026295
315.00 3.022898
315.10 3.019888
315.20 3.016882
315.30 3.013878
315.40 3.010878
315.50 3.007881
315.60 3.004888
315.70 3.001353
315.80 2.997823
315.90 2.994297
316.00 2.990774
316.10 2.987797
316.20 2.984824
316.30 2.985103
316.40 2.982134
316.50 2.97376
316.60 2.959989
316.70 2.949477
316.80 2.938978
316.90 2.937123
317.00 2.935271
317.10 2.93342
317.20 2.93157
317.30 2.934671
317.40 2.936088
317.50 2.932725
317.60 2.929365
317.70 2.926009
317.80 2.922657
317.90 2.909532
318.00 2.89231
318.10 2.862113
318.20 2.831953
318.30 2.801831
318.40 2.75521
318.50 2.661613
318.60 2.546206
318.70 2.242682
318.80 1.733654
318.90 2.245411
319.00 2.45012
319.10 2.566711
319.20 2.663874
319.30 2.70607
319.40 2.748213
319.50 2.790303
319.60 2.821775
319.70 2.835717
319.80 2.849641
319.90 2.863547
320.00 2.873974
320.10 2.880639
320.20 2.886298
320.30 2.890731
320.40 2.894416
320.50 2.896197
320.60 2.89865
320.70 2.900003
320.80 2.900596
320.90 2.900367
321.00 2.900138
321.10 2.899908
321.20 2.901212
321.30 2.900133
321.40 2.899054
321.50 2.897976
321.60 2.8969
321.70 2.895824
321.80 2.895079
321.90 2.894694
322.00 2.893032
322.10 2.891495
322.20 2.88996
322.30 2.888427
322.40 2.886895
322.50 2.885364
322.60 2.883834
322.70 2.882306
322.80 2.880703
322.90 2.879104
323.00 2.877506
323.10 2.875909
323.20 2.874314
323.30 2.87272
323.40 2.871128
323.50 2.869537
323.60 2.867948
323.70 2.86636
323.80 2.864773
323.90 2.863188
324.00 2.861421
324.10 2.859655
324.20 2.857892
324.30 2.856129
324.40 2.854369
324.50 2.85261
324.60 2.850852
324.70 2.849097
324.80 2.847343
324.90 2.84559
325.00 2.843839
325.10 2.84209
325.20 2.840342
325.30 2.838596
325.40 2.836852
325.50 2.835109
325.60 2.833368
325.70 2.831628
325.80 2.82989
325.90 2.828154
326.00 2.826419
326.10 2.824686
326.20 2.822954
326.30 2.821224
326.40 2.819496
326.50 2.817769
326.60 2.816044
326.70 2.81432
326.80 2.812598
326.90 2.810878
327.00 2.809159
327.10 2.807441
327.20 2.805725
327.30 2.804011
327.40 2.802299
327.50 2.800588
327.60 2.798878
327.70 2.79717
327.80 2.795464
327.90 2.793759
328.00 2.791665
328.10 2.789096
328.20 2.786529
328.30 2.783965
328.40 2.781404
328.50 2.780004
328.60 2.778878
328.70 2.777752
328.80 2.776481
328.90 2.774793
329.00 2.773106
329.10 2.771421
329.20 2.769738
329.30 2.768056
329.40 2.766375
329.50 2.764697
329.60 2.763019
329.70 2.761343
329.80 2.759669
329.90 2.757996
330.00 2.756325
330.10 2.754655
330.20 2.752987
330.30 2.75132
330.40 2.749569
330.50 2.747725
330.60 2.745883
330.70 2.744043
330.80 2.742205
330.90 2.740368
331.00 2.738534
331.10 2.7367
331.20 2.734869
331.30 2.733039
331.40 2.731211
331.50 2.729465
331.60 2.727819
331.70 2.726175
331.80 2.724392
331.90 2.722605
332.00 2.720819
332.10 2.719036
332.20 2.717253
332.30 2.715473
332.40 2.713694
332.50 2.711917
332.60 2.710142
332.70 2.708368
332.80 2.706595
332.90 2.704825
333.00 2.703056
333.10 2.701266
333.20 2.699449
333.30 2.697635
333.40 2.695822
333.50 2.69401
333.60 2.692201
333.70 2.690393
333.80 2.688587
333.90 2.686782
334.00 2.684979
334.10 2.682974
334.20 2.680722
334.30 2.678472
334.40 2.676224
334.50 2.673979
334.60 2.671735
334.70 2.668947
334.80 2.665954
334.90 2.663624
335.00 2.661297
335.10 2.658686
335.20 2.655171
335.30 2.652286
335.40 2.645889
335.50 2.647681
335.60 2.64899
335.70 2.648566
335.80 2.647949
335.90 2.647333
336.00 2.646718
336.10 2.646102
336.20 2.645487
336.30 2.644441
336.40 2.642869
336.50 2.641299
336.60 2.639729
336.70 2.638162
336.80 2.636595
336.90 2.635243
337.00 2.634152
337.10 2.633061
337.20 2.631971
337.30 2.630689
337.40 2.62913
337.50 2.627572
337.60 2.626016
337.70 2.624461
337.80 2.622907
337.90 2.621355
338.00 2.619804
338.10 2.618255
338.20 2.616706
338.30 2.61516
338.40 2.613553
338.50 2.611796
338.60 2.61004
338.70 2.608287
338.80 2.606534
338.90 2.604784
339.00 2.603035
339.10 2.601288
339.20 2.599542
339.30 2.597885
339.40 2.596354
339.50 2.59476
339.60 2.593088
339.70 2.591418
339.80 2.589749
339.90 2.588081
340.00 2.586415
340.10 2.584751
340.20 2.583088
340.30 2.581426
340.40 2.579766
340.50 2.578108
340.60 2.576451
340.70 2.574796
340.80 2.573201
340.90 2.571691
341.00 2.570078
341.10 2.568339
341.20 2.566601
341.30 2.564864
341.40 2.56313
341.50 2.561396
341.60 2.559665
341.70 2.557935
341.80 2.556114
341.90 2.554183
342.00 2.552254
342.10 2.550326
342.20 2.548487
342.30 2.545934
342.40 2.543408
342.50 2.541303
342.60 2.5392
342.70 2.537099
342.80 2.535
342.90 2.532903
343.00 2.530676
343.10 2.52829
343.20 2.525906
343.30 2.523524
343.40 2.521016
343.50 2.518323
343.60 2.515634
343.70 2.512947
343.80 2.510263
343.90 2.507582
344.00 2.504465
344.10 2.500722
344.20 2.496982
344.30 2.493247
344.40 2.488579
344.50 2.482569
344.60 2.47652
344.70 2.463182
344.80 2.470184
344.90 2.47604
345.00 2.479275
345.10 2.480568
345.20 2.481496
345.30 2.481901
345.40 2.482306
345.50 2.482667
345.60 2.482631
345.70 2.482102
345.80 2.481573
345.90 2.481044
346.00 2.480515
346.10 2.479987
346.20 2.479162
346.30 2.477911
346.40 2.476661
346.50 2.475412
346.60 2.474164
346.70 2.472918
346.80 2.471672
346.90 2.470427
347.00 2.469184
347.10 2.467941
347.20 2.466626
347.30 2.465205
347.40 2.463786
347.50 2.462368
347.60 2.460952
347.70 2.459536
347.80 2.458122
347.90 2.456709
348.00 2.455298
348.10 2.453887
348.20 2.452478
348.30 2.45107
348.40 2.449663
348.50 2.448257
348.60 2.446853
348.70 2.44545
348.80 2.443999
348.90 2.44248
349.00 2.440962
349.10 2.439445
349.20 2.437929
349.30 2.436415
349.40 2.434902
349.50 2.433391
349.60 2.431881
349.70 2.430372
349.80 2.428865
349.90 2.427358
350.00 2.425854
350.10 2.42435
350.20 2.422848
350.30 2.42133
350.40 2.419788
350.50 2.418248
350.60 2.416709
350.70 2.415172
350.80 2.413636
350.90 2.412101
351.00 2.410567
351.10 2.409035
351.20 2.407505
351.30 2.405975
351.40 2.404504
351.50 2.403137
351.60 2.40177
351.70 2.400404
351.80 2.39904
351.90 2.397676
352.00 2.396314
352.10 2.394953
352.20 2.392538
352.30 2.390427
352.40 2.38892
352.50 2.387415
352.60 2.385911
352.70 2.384408
352.80 2.382906
352.90 2.381406
353.00 2.379907
353.10 2.37841
353.20 2.376914
353.30 2.375419
353.40 2.373925
353.50 2.372552
353.60 2.371211
353.70 2.36987
353.80 2.36853
353.90 2.367123
354.00 2.365592
354.10 2.364063
354.20 2.362535
354.30 2.361009
354.40 2.359484
354.50 2.35796
354.60 2.356438
354.70 2.354917
354.80 2.353476
354.90 2.35215
355.00 2.350825
355.10 2.349501
355.20 2.348179
355.30 2.346459
355.40 2.34474
355.50 2.343024
355.60 2.341308
355.70 2.339869
355.80 2.338554
355.90 2.33724
356.00 2.335832
356.10 2.334402
356.20 2.332973
356.30 2.331546
356.40 2.330119
356.50 2.328694
356.60 2.32727
356.70 2.325848
356.80 2.324426
356.90 2.323006
357.00 2.321587
357.10 2.320169
357.20 2.318753
357.30 2.317337
357.40 2.315784
357.50 2.313984
357.60 2.312185
357.70 2.310389
357.80 2.309097
357.90 2.307807
358.00 2.306259
358.10 2.304647
358.20 2.303037
358.30 2.301428
358.40 2.299821
358.50 2.298215
358.60 2.296611
358.70 2.295008
358.80 2.293406
358.90 2.291806
359.00 2.290052
359.10 2.288023
359.20 2.285906
359.30 2.283193
359.40 2.280482
359.50 2.278447
359.60 2.276581
359.70 2.274717
359.80 2.271551
359.90 2.268387
360.00 2.26479
360.10 2.26042
360.20 2.256054
360.30 2.251693
360.40 2.247337
360.50 2.242985
360.60 2.237643
360.70 2.229739
360.80 2.221844
360.90 2.213957
361.00 2.204197
361.10 2.191368
361.20 2.176128
361.30 2.144707
361.40 2.165257
361.50 2.19673
361.60 2.205957
361.70 2.208879
361.80 2.211704
361.90 2.214361
362.00 2.217014
362.10 2.218401
362.20 2.219035
362.30 2.218897
362.40 2.218758
362.50 2.218619
362.60 2.21848
362.70 2.217474
362.80 2.216251
362.90 2.214212
363.00 2.212173
363.10 2.207975
363.20 2.203758
363.30 2.197019
363.40 2.190066
363.50 2.196242
363.60 2.204051
363.70 2.207299
363.80 2.208997
363.90 2.210121
364.00 2.211244
364.10 2.212364
364.20 2.213484
364.30 2.214187
364.40 2.214785
364.50 2.215212
364.60 2.215081
364.70 2.214949
364.80 2.214817
364.90 2.213603
365.00 2.21239
365.10 2.211178
365.20 2.209155
365.30 2.207946
365.40 2.209172
365.50 2.209586
365.60 2.209999
365.70 2.209527
365.80 2.209055
365.90 2.207995
366.00 2.206789
366.10 2.205981
366.20 2.205173
366.30 2.204366
366.40 2.20356
366.50 2.202385
366.60 2.201184
366.70 2.199983
366.80 2.198784
366.90 2.197481
367.00 2.195994
367.10 2.194509
367.20 2.193025
367.30 2.191542
367.40 2.19006
367.50 2.188811
367.60 2.18762
367.70 2.185165
367.80 2.182712
367.90 2.180261
368.00 2.178066
368.10 2.175303
368.20 2.172442
368.30 2.169588
368.40 2.166736
368.50 2.163886
368.60 2.16104
368.70 2.158196
368.80 2.155355
368.90 2.152095
369.00 2.148249
369.10 2.144449
369.20 2.140081
369.30 2.135744
369.40 2.131411
369.50 2.127083
369.60 2.121986
369.70 2.116893
369.80 2.110621
369.90 2.104343
370.00 2.098071
370.10 2.091764
370.20 2.079623
370.30 2.067436
370.40 2.04749
370.50 2.03263
370.60 2.053447
370.70 2.073906
370.80 2.082983
370.90 2.092049
371.00 2.09494
371.10 2.097765
371.20 2.099765
371.30 2.101762
371.40 2.104857
371.50 2.106649
371.60 2.108438
371.70 2.110225
371.80 2.112009
371.90 2.113791
372.00 2.115593
372.10 2.11781
372.20 2.118237
372.30 2.118662
372.40 2.119087
372.50 2.119512
372.60 2.119935
372.70 2.120358
372.80 2.120772
372.90 2.121186
373.00 2.120839
373.10 2.120485
373.20 2.11857
373.30 2.116658
373.40 2.107752
373.50 2.108954
373.60 2.112484
373.70 2.113681
373.80 2.11478
373.90 2.116071
374.00 2.116102
374.10 2.116132
374.20 2.116162
374.30 2.116192
374.40 2.116028
374.50 2.115477
374.60 2.115114
374.70 2.114759
374.80 2.114404
374.90 2.114049
375.00 2.113436
375.10 2.112822
375.20 2.112209
375.30 2.111084
375.40 2.109959
375.50 2.108836
375.60 2.107713
375.70 2.106591
375.80 2.10547
375.90 2.10435
376.00 2.103231
376.10 2.102113
376.20 2.100995
376.30 2.099879
376.40 2.098763
376.50 2.097437
376.60 2.095797
376.70 2.094158
376.80 2.092605
376.90 2.091139
377.00 2.089675
377.10 2.088211
377.20 2.086624
377.30 2.08457
377.40 2.082517
377.50 2.080466
377.60 2.078373
377.70 2.076282
377.80 2.074193
377.90 2.072106
378.00 2.070416
378.10 2.067584
378.20 2.064737
378.30 2.061893
378.40 2.059051
378.50 2.056212
378.60 2.053376
378.70 2.050543
378.80 2.047712
378.90 2.044713
379.00 2.041399
379.10 2.037909
379.20 2.034423
379.30 2.030688
379.40 2.026703
379.50 2.022723
379.60 2.018394
379.70 2.013262
379.80 2.007084
379.90 2.000912
380.00 1.994747
380.10 1.988588
380.20 1.982435
380.30 1.976288
380.40 1.970147
380.50 1.964013
380.60 1.954905
380.70 1.945042
380.80 1.935189
380.90 1.925346
381.00 1.915514
381.10 1.906115
381.20 1.895441
381.30 1.883712
381.40 1.86917
381.50 1.853682
381.60 1.835505
381.70 1.812356
381.80 1.784095
381.90 1.729666
382.00 1.702027
382.10 1.782037
382.20 1.821014
382.30 1.847494
382.40 1.868442
382.50 1.881116
382.60 1.893776
382.70 1.904315
382.80 1.910136
382.90 1.913617
383.00 1.917095
383.10 1.920569
383.20 1.924128
383.30 1.928014
383.40 1.932047
383.50 1.936302
383.60 1.940043
383.70 1.942717
383.80 1.945388
383.90 1.948056
384.00 1.950721
384.10 1.953382
384.20 1.956041
384.30 1.958697
384.40 1.96071
384.50 1.962082
384.60 1.963453
384.70 1.964822
384.80 1.966402
384.90 1.968031
385.00 1.968264
385.10 1.968524
385.20 1.969607
385.30 1.970067
385.40 1.970125
385.50 1.969783
385.60 1.969441
385.70 1.969099
385.80 1.968615
385.90 1.967595
386.00 1.966575
386.10 1.965456
386.20 1.963316
386.30 1.961178
386.40 1.958894
386.50 1.954493
386.60 1.948151
386.70 1.934099
386.80 1.911009
386.90 1.921966
387.00 1.92535
387.10 1.926525
387.20 1.927987
387.30 1.928834
387.40 1.929282
387.50 1.928287
387.60 1.925016
387.70 1.920058
387.80 1.915105
387.90 1.910157
388.00 1.904287
388.10 1.893674
388.20 1.873059
388.30 1.847453
388.40 1.821874
388.50 1.784657
388.60 1.719254
388.70 1.610176
388.80 1.369804
388.90 1.228043
389.00 1.507878
389.10 1.643763
389.20 1.723055
389.30 1.774095
389.40 1.808366
389.50 1.83718
389.60 1.856785
389.70 1.869506
389.80 1.876795
389.90 1.884075
390.00 1.891349
390.10 1.898614
390.20 1.905872
390.30 1.910735
390.40 1.912903
390.50 1.915069
390.60 1.917233
390.70 1.919394
390.80 1.920784
390.90 1.921404
391.00 1.921225
391.10 1.921619
391.20 1.921723
391.30 1.920962
391.40 1.920452
391.50 1.919943
391.60 1.919433
391.70 1.918924
391.80 1.918415
391.90 1.917686
392.00 1.916708
392.10 1.91573
392.20 1.914753
392.30 1.913298
392.40 1.911394
392.50 1.910174
392.60 1.908041
392.70 1.905664
392.80 1.906099
392.90 1.90539
393.00 1.905167
393.10 1.904593
393.20 1.903625
393.30 1.902657
393.40 1.901689
393.50 1.900723
393.60 1.8989
393.70 1.897394
393.80 1.896368
393.90 1.894707
394.00 1.89311
394.10 1.891483
394.20 1.889108
394.30 1.886836
394.40 1.884977
394.50 1.882744
394.60 1.880234
394.70 1.877518
394.80 1.874016
394.90 1.87046
395.00 1.865277
395.10 1.861199
395.20 1.855451
395.30 1.849543
395.40 1.84364
395.50 1.835612
395.60 1.826803
395.70 1.816133
395.80 1.800424
395.90 1.784731
396.00 1.76826
396.10 1.740267
396.20 1.702802
396.30 1.660345
396.40 1.578994
396.50 1.612385
396.60 1.727312
396.70 1.758775
396.80 1.763811
396.90 1.766766
397.00 1.782102
397.10 1.80182
397.20 1.812823
397.30 1.815576
397.40 1.816389
397.50 1.8172
397.60 1.817987
397.70 1.81853
397.80 1.819073
397.90 1.819486
398.00 1.819549
398.10 1.819612
398.20 1.819215
398.30 1.818302
398.40 1.817358
398.50 1.815396
398.60 1.813131
398.70 1.811038
398.80 1.809018
398.90 1.806682
399.00 1.803759
399.10 1.80127
399.20 1.797873
399.30 1.794478
399.40 1.791087
399.50 1.787699
399.60 1.783391
399.70 1.778747
399.80 1.774107
399.90 1.769471
400.00 1.764827
400.10 1.759779
400.20 1.754524
400.30 1.748136
400.40 1.741385
400.50 1.733525
400.60 1.725887
400.70 1.717602
400.80 1.708704
400.90 1.69639
401.00 1.687262
401.10 1.680318
401.20 1.672379
401.30 1.662049
401.40 1.649777
401.50 1.637005
401.60 1.624108
401.70 1.606769
401.80 1.58781
401.90 1.565729
402.00 1.542814
402.10 1.516013
402.20 1.483397
402.30 1.444238
402.40 1.388218
402.50 1.307522
402.60 1.189261
402.70 1.271744
402.80 1.384519
402.90 1.441642
403.00 1.492302
403.10 1.529841
403.20 1.55918
403.30 1.584031
403.40 1.604796
403.50 1.622332
403.60 1.639131
403.70 1.652959
403.80 1.663069
403.90 1.672058
404.00 1.680678
404.10 1.685523
404.20 1.689331
404.30 1.693136
404.40 1.692299
404.50 1.690138
404.60 1.687979
404.70 1.689791
404.80 1.691756
404.90 1.696054
405.00 1.699649
405.10 1.703058
405.20 1.70646
405.30 1.709859
405.40 1.712532
405.50 1.715202
405.60 1.71787
405.70 1.720534
405.80 1.723196
405.90 1.725855
406.00 1.727386
406.10 1.728915
406.20 1.730442
406.30 1.731968
406.40 1.733421
406.50 1.734541
406.60 1.735648
406.70 1.736023
406.80 1.736705
406.90 1.738357
407.00 1.73855
407.10 1.738742
407.20 1.738934
407.30 1.739125
407.40 1.739316
407.50 1.739507
407.60 1.739697
407.70 1.739887
407.80 1.740076
407.90 1.740255
408.00 1.740114
408.10 1.73983
408.20 1.739655
408.30 1.73965
408.40 1.739645
408.50 1.739022
408.60 1.73862
408.70 1.738218
408.80 1.737767
408.90 1.736977
409.00 1.736376
409.10 1.735776
409.20 1.735176
409.30 1.734577
409.40 1.733957
409.50 1.732653
409.60 1.731351
409.70 1.730141
409.80 1.729296
409.90 1.728453
410.00 1.72761
410.10 1.726767
410.20 1.725523
410.30 1.724179
410.40 1.722754
410.50 1.721068
410.60 1.719384
410.70 1.717663
410.80 1.715787
410.90 1.713912
411.00 1.711471
411.10 1.708823
411.20 1.706176
411.30 1.703457
411.40 1.700356
411.50 1.694555
411.60 1.688759
411.70 1.681789
411.80 1.67011
411.90 1.65678
412.00 1.625334
412.10 1.553399
412.20 1.570184
412.30 1.592251
412.40 1.609854
412.50 1.622306
412.60 1.632431
412.70 1.639367
412.80 1.645501
412.90 1.650181
413.00 1.653352
413.10 1.653811
413.20 1.65427
413.30 1.654728
413.40 1.655186
413.50 1.655391
413.60 1.654363
413.70 1.652614
413.80 1.650866
413.90 1.649119
414.00 1.646843
414.10 1.642888
414.20 1.638179
414.30 1.628297
414.40 1.61792
414.50 1.626164
414.60 1.6327
414.70 1.636953
414.80 1.640673
414.90 1.642715
415.00 1.644755
415.10 1.646793
415.20 1.648619
415.30 1.649783
415.40 1.650945
415.50 1.652101
415.60 1.653105
415.70 1.654108
415.80 1.654975
415.90 1.655416
416.00 1.655856
416.10 1.656228
416.20 1.656333
416.30 1.656437
416.40 1.65654
416.50 1.656636
416.60 1.656465
416.70 1.656275
416.80 1.65475
416.90 1.652099
417.00 1.6514
417.10 1.653119
417.20 1.652949
417.30 1.652787
417.40 1.652874
417.50 1.652961
417.60 1.652872
417.70 1.652099
417.80 1.651929
417.90 1.651759
418.00 1.651589
418.10 1.651419
418.20 1.651249
418.30 1.65106
418.40 1.650304
418.50 1.649649
418.60 1.648996
418.70 1.648342
418.80 1.647689
418.90 1.647037
419.00 1.646385
419.10 1.645733
419.20 1.645082
419.30 1.644427
419.40 1.643643
419.50 1.64286
419.60 1.642077
419.70 1.641294
419.80 1.640512
419.90 1.639731
420.00 1.63895
420.10 1.63817
420.20 1.637391
420.30 1.636611
420.40 1.635833
420.50 1.635055
420.60 1.634278
420.70 1.633501
420.80 1.632724
420.90 1.631949
421.00 1.631174
421.10 1.630399
421.20 1.629581
421.30 1.628634
421.40 1.627687
421.50 1.62674
421.60 1.625795
421.70 1.62485
421.80 1.623906
421.90 1.622861
422.00 1.621495
422.10 1.62025
422.20 1.619483
422.30 1.618716
422.40 1.617944
422.50 1.616994
422.60 1.616045
422.70 1.615097
422.80 1.614149
422.90 1.613202
423.00 1.612256
423.10 1.61131
423.20 1.610365
423.30 1.609421
423.40 1.608478
423.50 1.607535
423.60 1.606593
423.70 1.605652
423.80 1.604711
423.90 1.603771
424.00 1.602832
424.10 1.601894
424.20 1.600956
424.30 1.600019
424.40 1.599119
424.50 1.598123
424.60 1.597127
424.70 1.596132
424.80 1.595138
424.90 1.594145
425.00 1.593153
425.10 1.592161
425.20 1.59117
425.30 1.59018
425.40 1.589191
425.50 1.588206
425.60 1.587222
425.70 1.586239
425.80 1.585256
425.90 1.584275
426.00 1.583294
426.10 1.582314
426.20 1.581334
426.30 1.580355
426.40 1.579377
426.50 1.5784
426.60 1.577424
426.70 1.576448
426.80 1.575473
426.90 1.574498
427.00 1.57351
427.10 1.572523
427.20 1.571536
427.30 1.57055
427.40 1.569565
427.50 1.56858
427.60 1.567597
427.70 1.566614
427.80 1.565632
427.90 1.56465
428.00 1.56367
428.10 1.56269
428.20 1.561711
428.30 1.560732
428.40 1.559755
428.50 1.558778
428.60 1.557801
428.70 1.556826
428.80 1.555849
428.90 1.554841
429.00 1.553833
429.10 1.552827
429.20 1.551821
429.30 1.550816
429.40 1.549811
429.50 1.548808
429.60 1.547805
429.70 1.546803
429.80 1.545802
429.90 1.544801
430.00 1.543801
430.10 1.542802
430.20 1.541804
430.30 1.540807
430.40 1.53981
430.50 1.538814
430.60 1.537819
430.70 1.536825
430.80 1.535831
430.90 1.534838
431.00 1.533846
431.10 1.532854
431.20 1.531864
431.30 1.530865
431.40 1.529748
431.50 1.528631
431.60 1.527516
431.70 1.526401
431.80 1.525288
431.90 1.524175
432.00 1.523063
432.10 1.521952
432.20 1.520841
432.30 1.519732
432.40 1.518623
432.50 1.517516
432.60 1.516409
432.70 1.515303
432.80 1.514198
432.90 1.513094
433.00 1.51199
433.10 1.510888
433.20 1.509786
433.30 1.508678
433.40 1.507483
433.50 1.506288
433.60 1.505094
433.70 1.503902
433.80 1.502651
433.90 1.501329
434.00 1.499898
434.10 1.4984
434.20 1.496903
434.30 1.495408
434.40 1.493913
434.50 1.49242
434.60 1.490928
434.70 1.489437
434.80 1.487922
434.90 1.486062
435.00 1.484204
435.10 1.482347
435.20 1.480492
435.30 1.478638
435.40 1.476786
435.50 1.474936
435.60 1.473087
435.70 1.471239
435.80 1.469393
435.90 1.467549
436.00 1.465706
436.10 1.463865
436.20 1.462025
436.30 1.45997
436.40 1.45762
436.50 1.454843
436.60 1.452068
436.70 1.449296
436.80 1.446526
436.90 1.443758
437.00 1.440993
437.10 1.438231
437.20 1.434879
437.30 1.430985
437.40 1.427069
437.50 1.422832
437.60 1.418598
437.70 1.414367
437.80 1.41014
437.90 1.405917
438.00 1.401586
438.10 1.395775
438.20 1.389968
438.30 1.384022
438.40 1.37698
438.50 1.362263
438.60 1.346771
438.70 1.315893
438.80 1.274294
438.90 1.298071
439.00 1.323457
439.10 1.336905
439.20 1.349888
439.30 1.356854
439.40 1.363813
439.50 1.370766
439.60 1.377468
439.70 1.381522
439.80 1.385385
439.90 1.388335
440.00 1.391282
440.10 1.394227
440.20 1.397028
440.30 1.397958
440.40 1.398888
440.50 1.399816
440.60 1.400744
440.70 1.401671
440.80 1.402596
440.90 1.403521
441.00 1.404445
441.10 1.405367
441.20 1.406228
441.30 1.406278
441.40 1.406018
441.50 1.405381
441.60 1.404745
441.70 1.404109
441.80 1.403134
441.90 1.402161
442.00 1.401187
442.10 1.400215
442.20 1.399243
442.30 1.398272
442.40 1.396964
442.50 1.395244
442.60 1.393526
442.70 1.391911
442.80 1.390414
442.90 1.388422
443.00 1.386273
443.10 1.383932
443.20 1.381098
443.30 1.377811
443.40 1.374237
443.50 1.370312
443.60 1.3665
443.70 1.357903
443.80 1.346013
443.90 1.349118
444.00 1.348676
444.10 1.347519
444.20 1.345512
444.30 1.343632
444.40 1.340515
444.50 1.3374
444.60 1.333628
444.70 1.329053
444.80 1.323889
444.90 1.318183
445.00 1.312481
445.10 1.306785
445.20 1.299822
445.30 1.291313
445.40 1.282812
445.50 1.274318
445.60 1.265831
445.70 1.257352
445.80 1.246165
445.90 1.232483
446.00 1.218814
446.10 1.205156
446.20 1.189788
446.30 1.170461
446.40 1.144582
446.50 1.113576
446.60 1.082598
446.70 1.051648
446.80 1.007544
446.90 0.9513164
447.00 0.9138258
447.10 0.8305644
447.20 0.7412221
447.30 0.8916945
447.40 0.9701787
447.50 1.029593
447.60 1.076758
447.70 1.112627
447.80 1.138926
447.90 1.161927
448.00 1.180268
448.10 1.194312
448.20 1.208344
448.30 1.222363
448.40 1.23637
448.50 1.250363
448.60 1.261356
448.70 1.269581
448.80 1.277608
448.90 1.283092
449.00 1.28857
449.10 1.294043
449.20 1.299512
449.30 1.304404
449.40 1.307717
449.50 1.311028
449.60 1.313573
449.70 1.315412
449.80 1.317248
449.90 1.319083
450.00 1.320917
450.10 1.322748
450.20 1.324578
450.30 1.326406
450.40 1.326885
450.50 1.327364
450.60 1.327842
450.70 1.32832
450.80 1.328797
450.90 1.329274
451.00 1.329114
451.10 1.328954
451.20 1.328054
451.30 1.326919
451.40 1.324204
451.50 1.321491
451.60 1.316655
451.70 1.307043
451.80 1.299033
451.90 1.298988
452.00 1.301596
452.10 1.304201
452.20 1.306009
452.30 1.307815
452.40 1.30962
452.50 1.311423
452.60 1.312988
452.70 1.314167
452.80 1.314989
452.90 1.315811
453.00 1.316632
453.10 1.317453
453.20 1.317677
453.30 1.317901
453.40 1.318124
453.50 1.318347
453.60 1.31857
453.70 1.318793
453.80 1.318928
453.90 1.318957
454.00 1.318985
454.10 1.319014
454.20 1.318816
454.30 1.318619
454.40 1.318422
454.50 1.318225
454.60 1.318027
454.70 1.317735
454.80 1.317355
454.90 1.316975
455.00 1.316595
455.10 1.316215
455.20 1.315836
455.30 1.315457
455.40 1.315078
455.50 1.314699
455.60 1.31432
455.70 1.313942
455.80 1.313366
455.90 1.312789
456.00 1.312214
456.10 1.311638
456.20 1.311063
456.30 1.310489
456.40 1.309915
456.50 1.309341
456.60 1.308767
456.70 1.308194
456.80 1.307622
456.90 1.307049
457.00 1.306477
457.10 1.305906
457.20 1.305335
457.30 1.304691
457.40 1.304048
457.50 1.303406
457.60 1.302764
457.70 1.302122
457.80 1.301481
457.90 1.30084
458.00 1.3002
458.10 1.29956
458.20 1.298921
458.30 1.298282
458.40 1.297643
458.50 1.297005
458.60 1.296367
458.70 1.295781
458.80 1.295216
458.90 1.294652
459.00 1.294088
459.10 1.293524
459.20 1.292961
459.30 1.292255
459.40 1.291549
459.50 1.290843
459.60 1.290139
459.70 1.289434
459.80 1.28873
459.90 1.288027
460.00 1.287324
460.10 1.286622
460.20 1.28592
460.30 1.285218
460.40 1.284517
460.50 1.283817
460.60 1.283117
460.70 1.282513
460.80 1.281956
460.90 1.2814
461.00 1.280844
461.10 1.280289
461.20 1.279355
461.30 1.278267
461.40 1.277606
461.50 1.277053
461.60 1.2765
461.70 1.275947
461.80 1.275181
461.90 1.274415
462.00 1.273651
462.10 1.272886
462.20 1.272123
462.30 1.271359
462.40 1.270597
462.50 1.269835
462.60 1.269073
462.70 1.268312
462.80 1.267552
462.90 1.266792
463.00 1.266032
463.10 1.265274
463.20 1.264562
463.30 1.26387
463.40 1.263179
463.50 1.262488
463.60 1.261797
463.70 1.261107
463.80 1.260417
463.90 1.259646
464.00 1.258854
464.10 1.258063
464.20 1.257272
464.30 1.256482
464.40 1.255693
464.50 1.254904
464.60 1.254115
464.70 1.253387
464.80 1.252684
464.90 1.251981
465.00 1.251278
465.10 1.250576
465.20 1.249875
465.30 1.249168
465.40 1.248459
465.50 1.24775
465.60 1.247042
465.70 1.246334
465.80 1.245627
465.90 1.244863
466.00 1.244084
466.10 1.243307
466.20 1.24253
466.30 1.241714
466.40 1.240882
466.50 1.240052
466.60 1.239222
466.70 1.238392
466.80 1.237563
466.90 1.236735
467.00 1.235907
467.10 1.23508
467.20 1.234254
467.30 1.233639
467.40 1.232955
467.50 1.232233
467.60 1.231511
467.70 1.23079
467.80 1.230069
467.90 1.229136
468.00 1.228116
468.10 1.227097
468.20 1.226078
468.30 1.225061
468.40 1.224044
468.50 1.223378
468.60 1.222856
468.70 1.22157
468.80 1.220827
468.90 1.219537
469.00 1.2188
469.10 1.217931
469.20 1.21692
469.30 1.215909
469.40 1.214899
469.50 1.213636
469.60 1.21227
469.70 1.210906
469.80 1.209542
469.90 1.207967
470.00 1.206032
470.10 1.203556
470.20 1.200648
470.30 1.197743
470.40 1.19484
470.50 1.19194
470.60 1.185475
470.70 1.178124
470.80 1.170779
470.90 1.16344
471.00 1.147955
471.10 1.12196
471.20 1.074695
471.30 0.9618392
471.40 0.9512883
471.50 1.027997
471.60 1.066441
471.70 1.100568
471.80 1.117334
471.90 1.129756
472.00 1.142167
472.10 1.154567
472.20 1.160015
472.30 1.163723
472.40 1.167428
472.50 1.17113
472.60 1.174828
472.70 1.17706
472.80 1.177764
472.90 1.178235
473.00 1.178706
473.10 1.179176
473.20 1.179645
473.30 1.180115
473.40 1.180583
473.50 1.181051
473.60 1.181519
473.70 1.181986
473.80 1.181869
473.90 1.181606
474.00 1.181343
474.10 1.181081
474.20 1.180799
474.30 1.18051
474.40 1.180221
474.50 1.179932
474.60 1.179624
474.70 1.179127
474.80 1.17863
474.90 1.178134
475.00 1.177638
475.10 1.177142
475.20 1.176647
475.30 1.176152
475.40 1.175562
475.50 1.174949
475.60 1.174337
475.70 1.173725
475.80 1.173113
475.90 1.172502
476.00 1.171891
476.10 1.171281
476.20 1.170558
476.30 1.16979
476.40 1.169023
476.50 1.168256
476.60 1.167489
476.70 1.166724
476.80 1.165958
476.90 1.165288
477.00 1.164641
477.10 1.163995
477.20 1.16335
477.30 1.162705
477.40 1.16206
477.50 1.161415
477.60 1.160772
477.70 1.160128
477.80 1.159485
477.90 1.158843
478.00 1.1582
478.10 1.157559
478.20 1.156918
478.30 1.156277
478.40 1.155636
478.50 1.154996
478.60 1.154357
478.70 1.153829
478.80 1.153347
478.90 1.152719
479.00 1.152055
479.10 1.151392
479.20 1.150729
479.30 1.150066
479.40 1.149384
479.50 1.148691
479.60 1.147998
479.70 1.147306
479.80 1.146614
479.90 1.145923
480.00 1.145232
480.10 1.144542
480.20 1.143852
480.30 1.143162
480.40 1.142474
480.50 1.141785
480.60 1.141097
480.70 1.14041
480.80 1.139723
480.90 1.139036
481.00 1.13835
481.10 1.137664
481.20 1.136935
481.30 1.136205
481.40 1.135477
481.50 1.134749
481.60 1.134021
481.70 1.133294
481.80 1.132567
481.90 1.131841
482.00 1.131115
482.10 1.13039
482.20 1.129665
482.30 1.128932
482.40 1.128199
482.50 1.127467
482.60 1.126735
482.70 1.126004
482.80 1.125273
482.90 1.124543
483.00 1.123813
483.10 1.123084
483.20 1.122355
483.30 1.121627
483.40 1.120899
483.50 1.120172
483.60 1.119445
483.70 1.118808
483.80 1.118171
483.90 1.117534
484.00 1.116898
484.10 1.116262
484.20 1.115518
484.30 1.11473
484.40 1.113941
484.50 1.113153
484.60 1.112366
484.70 1.111581
484.80 1.110818
484.90 1.110055
485.00 1.109292
485.10 1.10853
485.20 1.107769
485.30 1.107008
485.40 1.106248
485.50 1.105488
485.60 1.104729
485.70 1.103854
485.80 1.102979
485.90 1.102105
486.00 1.101232
486.10 1.100359
486.20 1.099487
486.30 1.098616
486.40 1.097745
486.50 1.096875
486.60 1.096006
486.70 1.095135
486.80 1.094235
486.90 1.093337
487.00 1.092439
487.10 1.091541
487.20 1.090341
487.30 1.089142
487.40 1.087944
487.50 1.086747
487.60 1.085551
487.70 1.084356
487.80 1.083161
487.90 1.081967
488.00 1.080775
488.10 1.079583
488.20 1.078381
488.30 1.077043
488.40 1.075706
488.50 1.07437
488.60 1.073035
488.70 1.071701
488.80 1.069929
488.90 1.068158
489.00 1.066273
489.10 1.064095
489.20 1.061919
489.30 1.059744
489.40 1.057571
489.50 1.055399
489.60 1.053229
489.70 1.051061
489.80 1.048626
489.90 1.045348
490.00 1.042073
490.10 1.0388
490.20 1.03553
490.30 1.032263
490.40 1.028237
490.50 1.024215
490.60 1.020195
490.70 1.016179
490.80 1.011931
490.90 1.008157
491.00 1.0046
491.10 1.004191
491.20 1.001985
491.30 0.9966393
491.40 0.9874515
491.50 0.9769883
491.60 0.9602217
491.70 0.9395125
491.80 0.9186063
491.90 0.894878
492.00 0.8715673
492.10 0.8700116
492.20 0.7731707
492.30 0.7983679
492.40 0.847903
492.50 0.8792071
492.60 0.9022102
492.70 0.9165749
492.80 0.9309278
492.90 0.945269
493.00 0.9590979
493.10 0.9662685
493.20 0.9734333
493.30 0.9805921
493.40 0.9877451
493.50 0.9948922
493.60 0.9992156
493.70 1.002792
493.80 1.006366
493.90 1.009724
494.00 1.012747
494.10 1.01532
494.20 1.016937
494.30 1.018553
494.40 1.020168
494.50 1.021781
494.60 1.023388
494.70 1.024932
494.80 1.026248
494.90 1.026919
495.00 1.027589
495.10 1.028259
495.20 1.028483
495.30 1.028706
495.40 1.028929
495.50 1.029153
495.60 1.029375
495.70 1.029598
495.80 1.02982
495.90 1.030042
496.00 1.030264
496.10 1.030282
496.20 1.029897
496.30 1.029914
496.40 1.029931
496.50 1.029949
496.60 1.029966
496.70 1.029551
496.80 1.029136
496.90 1.028722
497.00 1.028308
497.10 1.027895
497.20 1.027481
497.30 1.027068
497.40 1.026655
497.50 1.026242
497.60 1.02583
497.70 1.025404
497.80 1.0248
497.90 1.024195
498.00 1.023591
498.10 1.022988
498.20 1.022384
498.30 1.021782
498.40 1.021179
498.50 1.020577
498.60 1.019976
498.70 1.018695
498.80 1.017416
498.90 1.016535
499.00 1.015654
499.10 1.014775
499.20 1.013784
499.30 1.012501
499.40 1.011059
499.50 1.009618
499.60 1.008177
499.70 1.006683
499.80 1.004454
499.90 1.002226
500.00 1
500.10 0.9977758
500.20 0.9947971
500.30 0.9902145
500.40 0.9856354
500.50 0.98106
500.60 0.9764881
500.70 0.9719198
500.80 0.9651934
500.90 0.9538806
501.00 0.9425768
501.10 0.9312819
501.20 0.9075608
501.30 0.874686
501.40 0.8340304
501.50 0.7365991
501.60 0.7254434
501.70 0.8497545
501.80 0.8996286
501.90 0.9268013
502.00 0.9486928
502.10 0.9593951
502.20 0.9697259
502.30 0.9752299
502.40 0.9795782
502.50 0.9814771
502.60 0.9833745
502.70 0.9852702
502.80 0.9871644
502.90 0.989057
503.00 0.9903521
503.10 0.9903802
503.20 0.9904083
503.30 0.9904362
503.40 0.9903545
503.50 0.9899611
503.60 0.989568
503.70 0.9891751
503.80 0.9886687
503.90 0.9873279
504.00 0.9849466
504.10 0.9803546
504.20 0.9757662
504.30 0.9711813
504.40 0.9671373
504.50 0.9646252
504.60 0.9610085
504.70 0.9457807
504.80 0.916298
504.90 0.9292612
505.00 0.9422184
505.10 0.9507649
505.20 0.957995
505.30 0.9614937
505.40 0.9649895
505.50 0.9684825
505.60 0.9711361
505.70 0.9720107
505.80 0.9728845
505.90 0.9737576
506.00 0.9746298
506.10 0.9755014
506.20 0.9761193
506.30 0.9760175
506.40 0.9759156
506.50 0.9758138
506.60 0.975712
506.70 0.9756101
506.80 0.9755083
506.90 0.9754065
507.00 0.9753047
507.10 0.9751124
507.20 0.9747279
507.30 0.9743437
507.40 0.9739597
507.50 0.9735759
507.60 0.9731923
507.70 0.972809
507.80 0.9724259
507.90 0.972043
508.00 0.9716603
508.10 0.9712779
508.20 0.9708957
508.30 0.9705137
508.40 0.970132
508.50 0.9697504
508.60 0.9693691
508.70 0.9689881
508.80 0.9686072
508.90 0.9679707
509.00 0.9672447
509.10 0.9666076
509.20 0.9661587
509.30 0.96571
509.40 0.9652617
509.50 0.9648136
509.60 0.9643657
509.70 0.9639182
509.80 0.9634709
509.90 0.963024
510.00 0.9625772
510.10 0.9621308
510.20 0.9616847
510.30 0.9612065
510.40 0.9606371
510.50 0.9600679
510.60 0.9594992
510.70 0.9589308
510.80 0.9583628
510.90 0.9577952
511.00 0.957228
511.10 0.9566611
511.20 0.9560946
511.30 0.9555284
511.40 0.9549626
511.50 0.9543972
511.60 0.9538561
511.70 0.9533661
511.80 0.9528764
511.90 0.952387
512.00 0.9518979
512.10 0.9514091
512.20 0.9509206
512.30 0.9504236
512.40 0.9499017
512.50 0.9493801
512.60 0.9488588
512.70 0.9483379
512.80 0.9478173
512.90 0.947297
513.00 0.9467771
513.10 0.9462575
513.20 0.9457383
513.30 0.9452193
513.40 0.9447007
513.50 0.9441825
513.60 0.9436645
513.70 0.9431469
513.80 0.9426297
513.90 0.9421127
514.00 0.9415879
514.10 0.9410621
514.20 0.9405367
514.30 0.9400115
514.40 0.9394868
514.50 0.9389623
514.60 0.9384382
514.70 0.9379144
514.80 0.937391
514.90 0.9368679
515.00 0.9363451
515.10 0.9358226
515.20 0.9353005
515.30 0.9347788
515.40 0.9342573
515.50 0.9337362
515.60 0.9332155
515.70 0.932695
515.80 0.9321749
515.90 0.9316552
516.00 0.9311358
516.10 0.9306167
516.20 0.9300979
516.30 0.9295795
516.40 0.9290613
516.50 0.9285436
516.60 0.9280261
516.70 0.9275089
516.80 0.9269921
516.90 0.9264755
517.00 0.9259594
517.10 0.9254435
517.20 0.924928
517.30 0.9244128
517.40 0.9238979
517.50 0.9233834
517.60 0.9228692
517.70 0.9223553
517.80 0.9218418
517.90 0.9213286
518.00 0.9208157
518.10 0.9203031
518.20 0.9197909
518.30 0.919279
518.40 0.9187674
518.50 0.9182561
518.60 0.9177452
518.70 0.9172346
518.80 0.9167243
518.90 0.9162143
519.00 0.9157047
519.10 0.9151889
519.20 0.914666
519.30 0.9141435
519.40 0.9136213
519.50 0.9130994
519.60 0.9125779
519.70 0.9120567
519.80 0.9115358
519.90 0.9110153
520.00 0.9104951
520.10 0.9099752
520.20 0.9094557
520.30 0.9089365
520.40 0.9084176
520.50 0.9078991
520.60 0.9073809
520.70 0.906863
520.80 0.9063455
520.90 0.9058282
521.00 0.9053114
521.10 0.9047948
521.20 0.9042786
521.30 0.9037627
521.40 0.9032471
521.50 0.9027319
521.60 0.902217
521.70 0.9017024
521.80 0.9011881
521.90 0.9006742
522.00 0.9001606
522.10 0.8996474
522.20 0.8991344
522.30 0.8986218
522.40 0.8981095
522.50 0.8975976
522.60 0.8970859
522.70 0.8965746
522.80 0.8960636
522.90 0.895553
523.00 0.8950426
523.10 0.8945326
523.20 0.8940229
523.30 0.8935136
523.40 0.8930045
523.50 0.8924958
523.60 0.8919874
523.70 0.8914794
523.80 0.8909716
523.90 0.8904642
524.00 0.8899571
524.10 0.8894503
524.20 0.8889439
524.30 0.8884471
524.40 0.8879579
524.50 0.8874691
524.60 0.8869806
524.70 0.8864923
524.80 0.8860044
524.90 0.8855168
525.00 0.8850295
525.10 0.8845425
525.20 0.8840558
525.30 0.8835694
525.40 0.8830833
525.50 0.8825975
525.60 0.8821121
525.70 0.8816269
525.80 0.881142
525.90 0.8806575
526.00 0.8801732
526.10 0.8796893
526.20 0.8792056
526.30 0.8787223
526.40 0.8782393
526.50 0.8777565
526.60 0.8772741
526.70 0.876792
526.80 0.8763102
526.90 0.8758287
527.00 0.8753474
527.10 0.8748665
527.20 0.8743859
527.30 0.8739056
527.40 0.8734256
527.50 0.8729459
527.60 0.8724665
527.70 0.8719874
527.80 0.8715086
527.90 0.8710301
528.00 0.8705519
528.10 0.870074
528.20 0.8695964
528.30 0.869119
528.40 0.868642
528.50 0.8681653
528.60 0.8676889
528.70 0.8672128
528.80 0.866737
528.90 0.8662615
529.00 0.8657863
529.10 0.8653113
529.20 0.8648367
529.30 0.8643624
529.40 0.8638884
529.50 0.8634107
529.60 0.8629096
529.70 0.8624088
529.80 0.8619084
529.90 0.8614082
530.00 0.8609083
530.10 0.8604088
530.20 0.8599096
530.30 0.8594107
530.40 0.8589121
530.50 0.8584138
530.60 0.8579159
530.70 0.8574182
530.80 0.8569209
530.90 0.8564239
531.00 0.8559272
531.10 0.8554308
531.20 0.8549347
531.30 0.854439
531.40 0.8539435
531.50 0.8534484
531.60 0.8529535
531.70 0.852459
531.80 0.8519648
531.90 0.8514709
532.00 0.8509774
532.10 0.8504841
532.20 0.8500102
532.30 0.8495463
532.40 0.8490828
532.50 0.8486196
532.60 0.8481566
532.70 0.8476939
532.80 0.8472315
532.90 0.8467695
533.00 0.8463076
533.10 0.8458461
533.20 0.8453849
533.30 0.8449239
533.40 0.8444633
533.50 0.8440029
533.60 0.8435428
533.70 0.843083
533.80 0.8426235
533.90 0.8421642
534.00 0.8417053
534.10 0.8412466
534.20 0.8407882
534.30 0.8403301
534.40 0.8398723
534.50 0.8394148
534.60 0.8389576
534.70 0.8385006
534.80 0.8380415
534.90 0.8375724
535.00 0.8371036
535.10 0.836635
535.20 0.8361668
535.30 0.8356988
535.40 0.8352312
535.50 0.8347638
535.60 0.8342967
535.70 0.83383
535.80 0.8333635
535.90 0.8328973
536.00 0.8324313
536.10 0.8319657
536.20 0.8315004
536.30 0.8310353
536.40 0.8305706
536.50 0.8301061
536.60 0.8296419
536.70 0.829178
536.80 0.8287144
536.90 0.8282511
537.00 0.8277881
537.10 0.8273254
537.20 0.8268629
537.30 0.8264007
537.40 0.8259389
537.50 0.8254773
537.60 0.825016
537.70 0.8245549
537.80 0.8240942
537.90 0.8236338
538.00 0.8231736
538.10 0.8227137
538.20 0.8222541
538.30 0.8217948
538.40 0.8213358
538.50 0.8208771
538.60 0.8204186
538.70 0.8199604
538.80 0.8195025
538.90 0.8190449
539.00 0.8185876
539.10 0.8181306
539.20 0.8176738
539.30 0.8172173
539.40 0.8167611
539.50 0.8163052
539.60 0.8158496
539.70 0.8153943
539.80 0.8149392
539.90 0.8144844
540.00 0.8140299
540.10 0.8135757
540.20 0.8131228
540.30 0.8126706
540.40 0.8122188
540.50 0.8117672
540.60 0.8113158
540.70 0.8108648
540.80 0.810414
540.90 0.8099635
541.00 0.8095133
541.10 0.8090634
541.20 0.8086137
541.30 0.8081643
541.40 0.8077152
541.50 0.8072664
541.60 0.8068178
541.70 0.8063696
541.80 0.8059215
541.90 0.8054738
542.00 0.8050264
542.10 0.8045792
542.20 0.8041323
542.30 0.8036857
542.40 0.8032393
542.50 0.8027932
542.60 0.8023474
542.70 0.8019019
542.80 0.8014567
542.90 0.8010117
543.00 0.800567
543.10 0.8001225
543.20 0.7996784
543.30 0.7992345
543.40 0.7987909
543.50 0.7983475
543.60 0.7979045
543.70 0.7974617
543.80 0.7970191
543.90 0.7965769
544.00 0.7961349
544.10 0.7956932
544.20 0.7952517
544.30 0.7948106
544.40 0.7943697
544.50 0.793929
544.60 0.7934887
544.70 0.7930486
544.80 0.7926088
544.90 0.7921692
545.00 0.7917299
545.10 0.7912909
545.20 0.7908522
545.30 0.7904137
545.40 0.7899755
545.50 0.7895375
545.60 0.7891103
545.70 0.7886877
545.80 0.7882654
545.90 0.7878433
546.00 0.7874215
546.10 0.787
546.20 0.7865787
546.30 0.7861576
546.40 0.7857368
546.50 0.7853163
546.60 0.784896
546.70 0.784476
546.80 0.7840563
546.90 0.7836368
547.00 0.7832175
547.10 0.7827985
547.20 0.7823798
547.30 0.7819613
547.40 0.781543
547.50 0.781125
547.60 0.7807073
547.70 0.7802898
547.80 0.7798726
547.90 0.7794556
548.00 0.7790389
548.10 0.7786225
548.20 0.7782062
548.30 0.7777791
548.40 0.777337
548.50 0.7768951
548.60 0.7764534
548.70 0.776012
548.80 0.7755709
548.90 0.7751301
549.00 0.7746895
549.10 0.7742493
549.20 0.7738092
549.30 0.7733695
549.40 0.77293
549.50 0.7724908
549.60 0.7720518
549.70 0.7716131
549.80 0.7711747
549.90 0.7707366
550.00 0.7702987
550.10 0.7698611
550.20 0.7694238
550.30 0.7689867
550.40 0.7685499
550.50 0.7681133
550.60 0.7676771
550.70 0.7672411
550.80 0.7668053
550.90 0.7663698
551.00 0.7659388
551.10 0.7655313
551.20 0.7651241
551.30 0.7647171
551.40 0.7643104
551.50 0.763904
551.60 0.7634977
551.70 0.7630917
551.80 0.762686
551.90 0.7622805
552.00 0.7618753
552.10 0.7614703
552.20 0.7610655
552.30 0.760661
552.40 0.7602567
552.50 0.7598527
552.60 0.7594489
552.70 0.7590453
552.80 0.758642
552.90 0.758239
553.00 0.7578361
553.10 0.7574336
553.20 0.7570312
553.30 0.7566291
553.40 0.7562273
553.50 0.7558257
553.60 0.7554243
553.70 0.7550231
553.80 0.7546069
553.90 0.7541806
554.00 0.7537545
554.10 0.7533288
554.20 0.7529033
554.30 0.752478
554.40 0.752053
554.50 0.7516283
554.60 0.7512038
554.70 0.7507796
554.80 0.7503556
554.90 0.7499319
555.00 0.7495084
555.10 0.7490852
555.20 0.7486623
555.30 0.7482396
555.40 0.7478172
555.50 0.747395
555.60 0.7469731
555.70 0.7465514
555.80 0.74613
555.90 0.7457089
556.00 0.745288
556.10 0.7448673
556.20 0.7444469
556.30 0.7440268
556.40 0.7436069
556.50 0.743188
556.60 0.7427827
556.70 0.7423776
556.80 0.7419728
556.90 0.7415682
557.00 0.7411639
557.10 0.7407598
557.20 0.740356
557.30 0.7399524
557.40 0.739549
557.50 0.7391459
557.60 0.738743
557.70 0.7383404
557.80 0.737938
557.90 0.7375359
558.00 0.737134
558.10 0.7367323
558.20 0.7363309
558.30 0.7359297
558.40 0.7355287
558.50 0.735128
558.60 0.7347275
558.70 0.7343273
558.80 0.7339273
558.90 0.7335276
559.00 0.7331281
559.10 0.7327288
559.20 0.7323298
559.30 0.731931
559.40 0.7315324
559.50 0.7311341
559.60 0.730736
559.70 0.7303382
559.80 0.7299406
559.90 0.7295432
560.00 0.7291461
560.10 0.7287492
560.20 0.7283525
560.30 0.7279561
560.40 0.7275599
560.50 0.727164
560.60 0.7267682
560.70 0.7263728
560.80 0.7259775
560.90 0.7255825
561.00 0.7251878
561.10 0.7247932
561.20 0.7243989
561.30 0.7240049
561.40 0.723611
561.50 0.7232174
561.60 0.7228241
561.70 0.722431
561.80 0.7220381
561.90 0.7216454
562.00 0.721253
562.10 0.7208662
562.20 0.7204878
562.30 0.7201097
562.40 0.7197317
562.50 0.719354
562.60 0.7189765
562.70 0.7185993
562.80 0.7182222
562.90 0.7178454
563.00 0.7174688
563.10 0.7170924
563.20 0.7167162
563.30 0.7163403
563.40 0.7159646
563.50 0.7155891
563.60 0.7152138
563.70 0.7148388
563.80 0.7144639
563.90 0.7140893
564.00 0.7137149
564.10 0.7133408
564.20 0.7129668
564.30 0.7125931
564.40 0.7122196
564.50 0.7118463
564.60 0.7114732
564.70 0.7111004
564.80 0.7107278
564.90 0.7103483
565.00 0.7099519
565.10 0.7095558
565.20 0.7091599
565.30 0.7087642
565.40 0.7083687
565.50 0.7079735
565.60 0.7075785
565.70 0.7071838
565.80 0.7067893
565.90 0.706395
566.00 0.706001
566.10 0.7056072
566.20 0.7052136
566.30 0.7048203
566.40 0.7044272
566.50 0.7040343
566.60 0.7036417
566.70 0.7032493
566.80 0.7028571
566.90 0.7024652
567.00 0.7020735
567.10 0.701682
567.20 0.7012907
567.30 0.7008997
567.40 0.700509
567.50 0.7001184
567.60 0.6997281
567.70 0.6993361
567.80 0.6989358
567.90 0.6985358
568.00 0.698136
568.10 0.6977365
568.20 0.6973372
568.30 0.6969382
568.40 0.6965393
568.50 0.6961408
568.60 0.6957424
568.70 0.6953443
568.80 0.6949464
568.90 0.6945488
569.00 0.6941514
569.10 0.6937542
569.20 0.6933573
569.30 0.6929606
569.40 0.6925642
569.50 0.692168
569.60 0.691772
569.70 0.6913762
569.80 0.6909807
569.90 0.6905855
570.00 0.6901904
570.10 0.6897956
570.20 0.689401
570.30 0.6890067
570.40 0.6886126
570.50 0.6882187
570.60 0.6878251
570.70 0.6874317
570.80 0.6870385
570.90 0.6866456
571.00 0.6862529
571.10 0.6858604
571.20 0.6854682
571.30 0.6850762
571.40 0.6846844
571.50 0.6842929
571.60 0.6839016
571.70 0.6835105
571.80 0.6831196
571.90 0.682729
572.00 0.6823387
572.10 0.6819485
572.20 0.6815586
572.30 0.6811689
572.40 0.6807794
572.50 0.6803902
572.60 0.6800012
572.70 0.6796125
572.80 0.6792239
572.90 0.6788356
573.00 0.6784475
573.10 0.6780597
573.20 0.6776721
573.30 0.6772847
573.40 0.6768951
573.50 0.6765023
573.60 0.6761098
573.70 0.6757174
573.80 0.6753254
573.90 0.6749335
574.00 0.6745419
574.10 0.6741505
574.20 0.6737594
574.30 0.6733685
574.40 0.6729778
574.50 0.6725873
574.60 0.6721971
574.70 0.6718071
574.80 0.6714173
574.90 0.6710278
575.00 0.6706385
575.10 0.6702494
575.20 0.6698606
575.30 0.669472
575.40 0.6690836
575.50 0.6686954
575.60 0.6683075
575.70 0.6679198
575.80 0.6675323
575.90 0.6671451
576.00 0.6667581
576.10 0.6663713
576.20 0.6659847
576.30 0.6655984
576.40 0.6652123
576.50 0.6648265
576.60 0.6644408
576.70 0.6640554
576.80 0.6636702
576.90 0.6632853
577.00 0.6629005
577.10 0.662516
577.20 0.6621317
577.30 0.6617477
577.40 0.6613639
577.50 0.6609803
577.60 0.6605749
577.70 0.6601339
577.80 0.6596931
577.90 0.6592526
578.00 0.6588124
578.10 0.6583724
578.20 0.6579327
578.30 0.6574933
578.40 0.6570541
578.50 0.6566152
578.60 0.6561765
578.70 0.6557381
578.80 0.6553
578.90 0.6548622
579.00 0.6544246
579.10 0.6539883
579.20 0.6535629
579.30 0.6531378
579.40 0.6527129
579.50 0.6522882
579.60 0.6518639
579.70 0.6514397
579.80 0.6510158
579.90 0.6505922
580.00 0.6501689
580.10 0.6496978
580.20 0.6491487
580.30 0.6486
580.40 0.6480516
580.50 0.6475036
580.60 0.6469559
580.70 0.6464085
580.80 0.6458615
580.90 0.6453148
581.00 0.6447685
581.10 0.6442224
581.20 0.6436768
581.30 0.6431314
581.40 0.6425864
581.50 0.6420418
581.60 0.6414975
581.70 0.6409535
581.80 0.6404098
581.90 0.6398665
582.00 0.6393235
582.10 0.6387043
582.20 0.6379606
582.30 0.6372174
582.40 0.6364747
582.50 0.6357324
582.60 0.6349906
582.70 0.6342493
582.80 0.6335084
582.90 0.632768
583.00 0.6320281
583.10 0.6312887
583.20 0.6305497
583.30 0.6298112
583.40 0.6290732
583.50 0.6283356
583.60 0.6274213
583.70 0.6262184
583.80 0.6250163
583.90 0.6238151
584.00 0.6226146
584.10 0.6214149
584.20 0.6202159
584.30 0.6190178
584.40 0.6178204
584.50 0.6166239
584.60 0.6154281
584.70 0.6142331
584.80 0.6130388
584.90 0.6117496
585.00 0.6100251
585.10 0.6083018
585.20 0.6062196
585.30 0.6035515
585.40 0.6008852
585.50 0.5982207
585.60 0.595558
585.70 0.5928971
585.80 0.5902379
585.90 0.5875806
586.00 0.584925
586.10 0.5822712
586.20 0.5785503
586.30 0.5730884
586.40 0.5676303
586.50 0.5621759
586.60 0.5567251
586.70 0.5512781
586.80 0.5436881
586.90 0.5326022
587.00 0.5215237
587.10 0.5104528
587.20 0.4951917
587.30 0.4730943
587.40 0.4467515
587.50 0.399064
587.60 0.3715891
587.70 0.4272641
587.80 0.4620008
587.90 0.4858283
588.00 0.504828
588.10 0.5159668
588.20 0.5270981
588.30 0.5382218
588.40 0.5470067
588.50 0.5519834
588.60 0.5569567
588.70 0.5619267
588.80 0.5668932
588.90 0.5718562
589.00 0.5756883
589.10 0.5776786
589.20 0.5796676
589.30 0.5816551
589.40 0.5836413
589.50 0.5856261
589.60 0.5876095
589.70 0.5895915
589.80 0.5915721
589.90 0.5935514
590.00 0.5950766
590.10 0.5958623
590.20 0.5966474
590.30 0.597432
590.40 0.5982161
590.50 0.5989995
590.60 0.5997824
590.70 0.6005647
590.80 0.6010483
590.90 0.6013976
591.00 0.6017467
591.10 0.6020955
591.20 0.602444
591.30 0.6027922
591.40 0.6031401
591.50 0.6034878
591.60 0.6037151
591.70 0.6037463
591.80 0.6037774
591.90 0.6038085
592.00 0.6038395
592.10 0.6038705
592.20 0.6039014
592.30 0.6039322
592.40 0.603963
592.50 0.6039938
592.60 0.6040245
592.70 0.6040551
592.80 0.6040857
592.90 0.6041162
593.00 0.6041467
593.10 0.6041057
593.20 0.6039482
593.30 0.6037908
593.40 0.6036335
593.50 0.6034762
593.60 0.6033191
593.70 0.6031619
593.80 0.6030049
593.90 0.6028479
594.00 0.602691
594.10 0.6025342
594.20 0.6023775
594.30 0.6022208
594.40 0.6020642
594.50 0.6019076
594.60 0.6017512
594.70 0.6015948
594.80 0.6014385
594.90 0.6012822
595.00 0.601126
595.10 0.6009407
595.20 0.6007077
595.30 0.6004749
595.40 0.6002421
595.50 0.6000095
595.60 0.5997771
595.70 0.5995447
595.80 0.5993125
595.90 0.5990804
596.00 0.5988484
596.10 0.5986165
596.20 0.5983848
596.30 0.5981532
596.40 0.5979217
596.50 0.5976903
596.60 0.597459
596.70 0.5972103
596.80 0.5969509
596.90 0.5966916
597.00 0.5964325
597.10 0.5961736
597.20 0.5959147
597.30 0.595656
597.40 0.5953975
597.50 0.5951391
597.60 0.5948767
597.70 0.5946079
597.80 0.5943392
597.90 0.5940706
598.00 0.5938022
598.10 0.593534
598.20 0.5932658
598.30 0.5929979
598.40 0.59273
598.50 0.5924624
598.60 0.5921948
598.70 0.5919274
598.80 0.5916602
598.90 0.5913931
599.00 0.5911262
599.10 0.5908593
599.20 0.5905927
599.30 0.5903262
599.40 0.5900417
599.50 0.5897575
599.60 0.5894734
599.70 0.5891894
599.80 0.5889056
599.90 0.588622
600.00 0.5883385
600.10 0.5880552
600.20 0.587772
600.30 0.587489
600.40 0.5872061
600.50 0.5869234
600.60 0.5866409
600.70 0.5863585
600.80 0.5860763
600.90 0.5857942
601.00 0.5855122
601.10 0.5852305
601.20 0.5849489
601.30 0.5846674
601.40 0.5843812
601.50 0.5840951
601.60 0.5838091
601.70 0.5835233
601.80 0.5832377
601.90 0.5829523
602.00 0.5826669
602.10 0.5823818
602.20 0.5820968
602.30 0.581812
602.40 0.5815273
602.50 0.5812428
602.60 0.5809584
602.70 0.5806448
602.80 0.5803298
602.90 0.5800404
603.00 0.5797512
603.10 0.5794622
603.20 0.5791732
603.30 0.5788845
603.40 0.5785959
603.50 0.5783075
603.60 0.5780192
603.70 0.5777311
603.80 0.5774432
603.90 0.5771554
604.00 0.5768677
604.10 0.5765803
604.20 0.576293
604.30 0.5760058
604.40 0.5757188
604.50 0.5754157
604.60 0.5751127
604.70 0.5748099
604.80 0.5745072
604.90 0.5742048
605.00 0.5739025
605.10 0.5736003
605.20 0.5732983
605.30 0.5729966
605.40 0.5726949
605.50 0.572358
605.60 0.5720213
605.70 0.5716847
605.80 0.5713483
605.90 0.5710122
606.00 0.5706762
606.10 0.5701487
606.20 0.5696215
606.30 0.5690946
606.40 0.568568
606.50 0.5671433
606.60 0.5657194
606.70 0.561853
606.80 0.5601375
606.90 0.5613357
607.00 0.5624448
607.10 0.5629651
607.20 0.5634851
607.30 0.5635787
607.40 0.5636721
607.50 0.5637655
607.60 0.5638588
607.70 0.5637319
607.80 0.5636051
607.90 0.5634784
608.00 0.5633517
608.10 0.563225
608.20 0.5630984
608.30 0.5628997
608.40 0.5627011
608.50 0.5625026
608.60 0.5623041
608.70 0.5620797
608.80 0.5618437
608.90 0.5616078
609.00 0.561372
609.10 0.5611364
609.20 0.5609009
609.30 0.5606438
609.40 0.5603869
609.50 0.5601301
609.60 0.5598734
609.70 0.5596169
609.80 0.5593605
609.90 0.5591043
610.00 0.5588482
610.10 0.5585922
610.20 0.5583364
610.30 0.5580807
610.40 0.5578252
610.50 0.5575697
610.60 0.5573145
610.70 0.5570593
610.80 0.5568043
610.90 0.5565369
611.00 0.5562696
611.10 0.5560024
611.20 0.5557354
611.30 0.5554685
611.40 0.5552018
611.50 0.5549352
611.60 0.5546688
611.70 0.5544025
611.80 0.5541364
611.90 0.5538704
612.00 0.5536045
612.10 0.5533388
612.20 0.5530732
612.30 0.5528078
612.40 0.5525319
612.50 0.5522562
612.60 0.5519806
612.70 0.5517052
612.80 0.55143
612.90 0.5511548
613.00 0.5508799
613.10 0.550605
613.20 0.5503304
613.30 0.5500558
613.40 0.5497815
613.50 0.5495073
613.60 0.5492332
613.70 0.5489593
613.80 0.5486855
613.90 0.5484119
614.00 0.5481384
614.10 0.5478651
614.20 0.5475919
614.30 0.5473189
614.40 0.5470581
614.50 0.5467975
614.60 0.546537
614.70 0.5462767
614.80 0.546005
614.90 0.5457311
615.00 0.5454574
615.10 0.5451838
615.20 0.5449103
615.30 0.544637
615.40 0.5443639
615.50 0.5440909
615.60 0.5438181
615.70 0.5435454
615.80 0.5432728
615.90 0.5430004
616.00 0.5427282
616.10 0.542456
616.20 0.5421841
616.30 0.5419123
616.40 0.5416406
616.50 0.5413691
616.60 0.5410977
616.70 0.5408265
616.80 0.5405555
616.90 0.5402821
617.00 0.540009
617.10 0.5397359
617.20 0.5394631
617.30 0.5391903
617.40 0.5389177
617.50 0.5386453
617.60 0.538373
617.70 0.5381009
617.80 0.5378289
617.90 0.5375571
618.00 0.5372854
618.10 0.5370138
618.20 0.5367424
618.30 0.5364712
618.40 0.5362001
618.50 0.5359291
618.60 0.5356583
618.70 0.5353876
618.80 0.5351171
618.90 0.5348468
619.00 0.5345765
619.10 0.5343065
619.20 0.5340365
619.30 0.5337667
619.40 0.5334971
619.50 0.5332276
619.60 0.5329583
619.70 0.5326891
619.80 0.53242
619.90 0.5321511
620.00 0.5318824
620.10 0.5316138
620.20 0.5313453
620.30 0.531077
620.40 0.5308088
620.50 0.5305408
620.60 0.5302729
620.70 0.5300051
620.80 0.5297375
620.90 0.5294701
621.00 0.5292027
621.10 0.5289355
621.20 0.5286684
621.30 0.5284015
621.40 0.5281347
621.50 0.5278681
621.60 0.5276016
621.70 0.5273353
621.80 0.5270691
621.90 0.526803
622.00 0.5265371
622.10 0.5262713
622.20 0.5260057
622.30 0.5257402
622.40 0.5254749
622.50 0.5252097
622.60 0.5249446
622.70 0.5246797
622.80 0.524415
622.90 0.5241503
623.00 0.5238859
623.10 0.5236215
623.20 0.5233573
623.30 0.5230933
623.40 0.5228294
623.50 0.5225656
623.60 0.522302
623.70 0.5220385
623.80 0.5217752
623.90 0.521512
624.00 0.5212489
624.10 0.520986
624.20 0.5207232
624.30 0.5204606
624.40 0.5201981
624.50 0.5199357
624.60 0.5196735
624.70 0.5194115
624.80 0.5191496
624.90 0.5188878
625.00 0.5186261
625.10 0.5183646
625.20 0.5181033
625.30 0.517842
625.40 0.517581
625.50 0.51732
625.60 0.5170592
625.70 0.5167986
625.80 0.516538
625.90 0.5162777
626.00 0.5160174
626.10 0.5157573
626.20 0.5154974
626.30 0.5152376
626.40 0.5149779
626.50 0.5147183
626.60 0.5144589
626.70 0.5141997
626.80 0.5139406
626.90 0.5136816
627.00 0.5134227
627.10 0.5131645
627.20 0.5129077
627.30 0.5126511
627.40 0.5123946
627.50 0.5121383
627.60 0.5118821
627.70 0.511626
627.80 0.5113701
627.90 0.5111143
628.00 0.5108586
628.10 0.5106031
628.20 0.5103477
628.30 0.5100924
628.40 0.5098373
628.50 0.5095823
628.60 0.5093275
628.70 0.5090728
628.80 0.5088182
628.90 0.5085638
629.00 0.5083095
629.10 0.5080553
629.20 0.5078013
629.30 0.5075474
629.40 0.5072936
629.50 0.50704
629.60 0.5067865
629.70 0.5065332
629.80 0.5062799
629.90 0.5060269
630.00 0.5057739
630.10 0.5055211
630.20 0.5052684
630.30 0.5050143
630.40 0.5047602
630.50 0.5045062
630.60 0.5042524
630.70 0.5039987
630.80 0.5037451
630.90 0.5034917
631.00 0.5032384
631.10 0.5029852
631.20 0.5027322
631.30 0.5024793
631.40 0.5022265
631.50 0.5019739
631.60 0.5017214
631.70 0.5014691
631.80 0.5012168
631.90 0.5009647
632.00 0.5007128
632.10 0.500461
632.20 0.5002093
632.30 0.4999577
632.40 0.4997063
632.50 0.4994551
632.60 0.4992039
632.70 0.4989529
632.80 0.498702
632.90 0.4984513
633.00 0.4982007
633.10 0.4979502
633.20 0.4976998
633.30 0.4974496
633.40 0.4972
633.50 0.496951
633.60 0.496702
633.70 0.4964532
633.80 0.4962046
633.90 0.495956
634.00 0.4957076
634.10 0.4954594
634.20 0.4952112
634.30 0.4949632
634.40 0.4947153
634.50 0.4944676
634.60 0.49422
634.70 0.4939725
634.80 0.4937251
634.90 0.4934779
635.00 0.4932308
635.10 0.4929839
635.20 0.4927371
635.30 0.4924904
635.40 0.4922438
635.50 0.4919974
635.60 0.4917511
635.70 0.4915049
635.80 0.4912589
635.90 0.4910129
636.00 0.4907672
636.10 0.4905215
636.20 0.490276
636.30 0.4900306
636.40 0.4897853
636.50 0.4895402
636.60 0.4892983
636.70 0.4890568
636.80 0.4888155
636.90 0.4885743
637.00 0.4883332
637.10 0.4880922
637.20 0.4878514
637.30 0.4876107
637.40 0.4873701
637.50 0.4871297
637.60 0.4868893
637.70 0.4866492
637.80 0.4864091
637.90 0.4861691
638.00 0.4859293
638.10 0.4856896
638.20 0.4854501
638.30 0.4852106
638.40 0.4849713
638.50 0.4847322
638.60 0.4844931
638.70 0.4842542
638.80 0.4840154
638.90 0.4837767
639.00 0.4835381
639.10 0.4832997
639.20 0.4830614
639.30 0.4828232
639.40 0.4825852
639.50 0.4823472
639.60 0.4821094
639.70 0.4818708
639.80 0.4816292
639.90 0.4813877
640.00 0.4811463
640.10 0.480905
640.20 0.4806639
640.30 0.4804229
640.40 0.480182
640.50 0.4799412
640.60 0.4797006
640.70 0.4794601
640.80 0.4792197
640.90 0.4789795
641.00 0.4787393
641.10 0.4784993
641.20 0.4782595
641.30 0.4780197
641.40 0.4777801
641.50 0.4775406
641.60 0.4773013
641.70 0.477062
641.80 0.4768229
641.90 0.4765839
642.00 0.4763451
642.10 0.4761063
642.20 0.4758677
642.30 0.4756292
642.40 0.4753909
642.50 0.4751526
642.60 0.4749145
642.70 0.4746765
642.80 0.4744387
642.90 0.474201
643.00 0.4739633
643.10 0.4737258
643.20 0.4734884
643.30 0.4732512
643.40 0.473014
643.50 0.472777
643.60 0.4725401
643.70 0.4723034
643.80 0.4720667
643.90 0.4718302
644.00 0.4715938
644.10 0.4713575
644.20 0.4711214
644.30 0.4708854
644.40 0.4706495
644.50 0.4704137
644.60 0.4701781
644.70 0.4699425
644.80 0.4697071
644.90 0.4694719
645.00 0.4692367
645.10 0.4690017
645.20 0.4687668
645.30 0.468532
645.40 0.4682973
645.50 0.4680628
645.60 0.4678284
645.70 0.4675941
645.80 0.4673599
645.90 0.4671259
646.00 0.4668919
646.10 0.4666579
646.20 0.4664235
646.30 0.4661893
646.40 0.4659551
646.50 0.4657211
646.60 0.4654871
646.70 0.4652534
646.80 0.4650197
646.90 0.4647861
647.00 0.4645527
647.10 0.4643194
647.20 0.4640862
647.30 0.4638532
647.40 0.4636202
647.50 0.4633874
647.60 0.4631547
647.70 0.4629222
647.80 0.4626897
647.90 0.4624574
648.00 0.4622252
648.10 0.4619931
648.20 0.4617611
648.30 0.4615293
648.40 0.4612976
648.50 0.461066
648.60 0.4608345
648.70 0.4606031
648.80 0.4603719
648.90 0.4601408
649.00 0.4599098
649.10 0.4596789
649.20 0.4594481
649.30 0.4592175
649.40 0.4589855
649.50 0.4587535
649.60 0.4585217
649.70 0.45829
649.80 0.4580584
649.90 0.4578269
650.00 0.4575956
650.10 0.4573643
650.20 0.4571332
650.30 0.4569022
650.40 0.4566714
650.50 0.4564406
650.60 0.45621
650.70 0.4559795
650.80 0.4557491
650.90 0.4555188
651.00 0.4552887
651.10 0.4550586
651.20 0.4548287
651.30 0.4545989
651.40 0.4543693
651.50 0.4541397
651.60 0.4539103
651.70 0.453681
651.80 0.4534518
651.90 0.4532227
652.00 0.4529937
652.10 0.4527649
652.20 0.4525362
652.30 0.4523076
652.40 0.4520791
652.50 0.4518508
652.60 0.4516192
652.70 0.451386
652.80 0.4511529
652.90 0.4509199
653.00 0.4506871
653.10 0.4504544
653.20 0.4502218
653.30 0.4499893
653.40 0.4497569
653.50 0.4495247
653.60 0.4492926
653.70 0.4490606
653.80 0.4488287
653.90 0.448597
654.00 0.4483653
654.10 0.4481338
654.20 0.4479024
654.30 0.4476712
654.40 0.44744
654.50 0.447209
654.60 0.4469781
654.70 0.4467473
654.80 0.4465166
654.90 0.4462861
655.00 0.4460557
655.10 0.4458253
655.20 0.4455952
655.30 0.4453651
655.40 0.4451351
655.50 0.4449053
655.60 0.4446756
655.70 0.444446
655.80 0.4442021
655.90 0.4439584
656.00 0.4437148
656.10 0.4434713
656.20 0.4432279
656.30 0.4429847
656.40 0.4427416
656.50 0.4424986
656.60 0.4422557
656.70 0.442013
656.80 0.4417704
656.90 0.4415279
657.00 0.4412856
657.10 0.4410434
657.20 0.4408013
657.30 0.4405593
657.40 0.4403175
657.50 0.4400758
657.60 0.4398342
657.70 0.4395927
657.80 0.439372
657.90 0.4391159
658.00 0.4388538
658.10 0.4385919
658.20 0.43833
658.30 0.4380683
658.40 0.4378067
658.50 0.4375453
658.60 0.437284
658.70 0.4370229
658.80 0.4367619
658.90 0.436501
659.00 0.4362403
659.10 0.4359882
659.20 0.4357491
659.30 0.4354604
659.40 0.4351719
659.50 0.4348835
659.60 0.4345953
659.70 0.4343072
659.80 0.4340193
659.90 0.4337316
660.00 0.433444
660.10 0.4331565
660.20 0.4328692
660.30 0.4325821
660.40 0.4322622
660.50 0.4319367
660.60 0.4316114
660.70 0.4312863
660.80 0.4309613
660.90 0.4305481
661.00 0.4301351
661.10 0.4297223
661.20 0.4293098
661.30 0.4288975
661.40 0.4284854
661.50 0.4280735
661.60 0.4276619
661.70 0.4272505
661.80 0.4268394
661.90 0.4262493
662.00 0.4256597
662.10 0.4250703
662.20 0.4244813
662.30 0.4238926
662.40 0.4232016
662.50 0.4221974
662.60 0.4211938
662.70 0.4201908
662.80 0.4191883
662.90 0.4177796
663.00 0.4163716
663.10 0.4151863
663.20 0.4170321
663.30 0.4203792
663.40 0.421976
663.50 0.4224396
663.60 0.4229028
663.70 0.4228669
663.80 0.422831
663.90 0.4226496
664.00 0.4224426
664.10 0.4220697
664.20 0.421697
664.30 0.4213245
664.40 0.4209522
664.50 0.4205801
664.60 0.4202082
664.70 0.4196183
664.80 0.4190288
664.90 0.4184396
665.00 0.4178508
665.10 0.4172622
665.20 0.4166741
665.30 0.4160862
665.40 0.4154987
665.50 0.4147424
665.60 0.4139567
665.70 0.4128703
665.80 0.4115816
665.90 0.4102937
666.00 0.4090065
666.10 0.4077201
666.20 0.4064345
666.30 0.4051496
666.40 0.4038654
666.50 0.4012822
666.60 0.3984711
666.70 0.3956618
666.80 0.3928541
666.90 0.3900481
667.00 0.3872437
667.10 0.3823838
667.20 0.3771638
667.30 0.3690145
667.40 0.36087
667.50 0.3463681
667.60 0.3307523
667.70 0.3043006
667.80 0.2731798
667.90 0.2873936
668.00 0.3172198
668.10 0.333666
668.20 0.348759
668.30 0.3565733
668.40 0.3631004
668.50 0.3696236
668.60 0.3761429
668.70 0.3803203
668.80 0.3827562
668.90 0.3851907
669.00 0.3876236
669.10 0.3900551
669.20 0.3924852
669.30 0.393675
669.40 0.3946457
669.50 0.3956157
669.60 0.3965851
669.70 0.3975539
669.80 0.3985221
669.90 0.3994898
670.00 0.4004568
670.10 0.4014233
670.20 0.4023891
670.30 0.4028799
670.40 0.4032867
670.50 0.4036932
670.60 0.4040994
670.70 0.4045054
670.80 0.4046483
670.90 0.4047911
671.00 0.4049338
671.10 0.4050764
671.20 0.4052189
671.30 0.4053613
671.40 0.4055036
671.50 0.4056458
671.60 0.4057879
671.70 0.4059298
671.80 0.4060717
671.90 0.4060981
672.00 0.406104
672.10 0.4061099
672.20 0.4061159
672.30 0.4061217
672.40 0.4060847
672.50 0.4060444
672.60 0.4060042
672.70 0.4059639
672.80 0.4059237
672.90 0.4058834
673.00 0.4058432
673.10 0.405803
673.20 0.4057627
673.30 0.4056422
673.40 0.4055197
673.50 0.4053969
673.60 0.4052742
673.70 0.4051515
673.80 0.4050289
673.90 0.4049063
674.00 0.4047837
674.10 0.4046613
674.20 0.4045389
674.30 0.4044165
674.40 0.4042942
674.50 0.4041719
674.60 0.4040497
674.70 0.4039276
674.80 0.4038055
674.90 0.4036835
675.00 0.4035615
675.10 0.4034396
675.20 0.4033177
675.30 0.4031959
675.40 0.403039
675.50 0.402876
675.60 0.402713
675.70 0.4025502
675.80 0.4023874
675.90 0.4022247
676.00 0.4020621
676.10 0.4018995
676.20 0.401737
676.30 0.4015747
676.40 0.4014123
676.50 0.4012501
676.60 0.401088
676.70 0.4009259
676.80 0.4007639
676.90 0.400602
677.00 0.4004401
677.10 0.4002784
677.20 0.4001167
677.30 0.3999551
677.40 0.3997935
677.50 0.3996321
677.60 0.3994707
677.70 0.3993094
677.80 0.3991482
677.90 0.3989745
678.00 0.3987986
678.10 0.3986228
678.20 0.3984471
678.30 0.3982714
678.40 0.3980959
678.50 0.3979204
678.60 0.3977451
678.70 0.3975698
678.80 0.3973946
678.90 0.3972195
679.00 0.3970444
679.10 0.3968636
679.20 0.3966803
679.30 0.3964971
679.40 0.396314
679.50 0.396131
679.60 0.3959481
679.70 0.3957653
679.80 0.3955826
679.90 0.3953999
680.00 0.3952174
680.10 0.3950349
680.20 0.3948525
680.30 0.3946703
680.40 0.3944881
680.50 0.394306
680.60 0.394124
680.70 0.393942
680.80 0.3937602
680.90 0.3935785
681.00 0.3933968
681.10 0.3932152
681.20 0.3930338
681.30 0.3928524
681.40 0.3926711
681.50 0.3924899
681.60 0.3923088
681.70 0.3921278
681.80 0.3919468
681.90 0.391766
682.00 0.3915852
682.10 0.3914046
682.20 0.391224
682.30 0.3910435
682.40 0.3908631
682.50 0.3906828
682.60 0.3905025
682.70 0.3903224
682.80 0.3901424
682.90 0.3899624
683.00 0.3897825
683.10 0.3896028
683.20 0.3894231
683.30 0.3892435
683.40 0.389064
683.50 0.3888845
683.60 0.3887052
683.70 0.3885259
683.80 0.3883468
683.90 0.3881677
684.00 0.3879887
684.10 0.3878098
684.20 0.387631
684.30 0.3874523
684.40 0.3872737
684.50 0.3870951
684.60 0.3869167
684.70 0.3867383
684.80 0.38656
684.90 0.3863818
685.00 0.3862037
685.10 0.3860257
685.20 0.3858478
685.30 0.3856699
685.40 0.3854922
685.50 0.3853145
685.60 0.3851369
685.70 0.3849594
685.80 0.384782
685.90 0.3846015
686.00 0.3844202
686.10 0.384239
686.20 0.3840579
686.30 0.3838769
686.40 0.383696
686.50 0.3835151
686.60 0.3833344
686.70 0.3831537
686.80 0.3829732
686.90 0.3827927
687.00 0.3826123
687.10 0.382432
687.20 0.3822518
687.30 0.3820717
687.40 0.3818916
687.50 0.3817117
687.60 0.3815318
687.70 0.3813521
687.80 0.3811724
687.90 0.3809928
688.00 0.3808133
688.10 0.3806339
688.20 0.3804546
688.30 0.3802753
688.40 0.3800962
688.50 0.3799171
688.60 0.3797382
688.70 0.3795593
688.80 0.3793805
688.90 0.3792018
689.00 0.3790231
689.10 0.3788446
689.20 0.3786662
689.30 0.3784878
689.40 0.3783095
689.50 0.3781314
689.60 0.3779533
689.70 0.3777752
689.80 0.3775973
689.90 0.3774195
690.00 0.3772417
690.10 0.3770641
690.20 0.3768865
690.30 0.376709
690.40 0.3765316
690.50 0.3763543
690.60 0.3761771
690.70 0.376
690.80 0.3758229
690.90 0.3756459
691.00 0.3754691
691.10 0.3752923
691.20 0.3751156
691.30 0.374939
691.40 0.3747624
691.50 0.374586
691.60 0.3744096
691.70 0.3742333
691.80 0.3740572
691.90 0.3738811
692.00 0.373705
692.10 0.3735291
692.20 0.3733533
692.30 0.3731775
692.40 0.3730019
692.50 0.3728263
692.60 0.3726508
692.70 0.372475
692.80 0.3722981
692.90 0.3721213
693.00 0.3719446
693.10 0.371768
693.20 0.3715914
693.30 0.371415
693.40 0.3712386
693.50 0.3710623
693.60 0.3708861
693.70 0.37071
693.80 0.3705339
693.90 0.370358
694.00 0.3701821
694.10 0.3700063
694.20 0.3698307
694.30 0.3696551
694.40 0.3694795
694.50 0.3693041
694.60 0.3691288
694.70 0.3689535
694.80 0.3687783
694.90 0.3686032
695.00 0.3684282
695.10 0.3682533
695.20 0.3680785
695.30 0.3679037
695.40 0.3677291
695.50 0.3675545
695.60 0.36738
695.70 0.3672056
695.80 0.3670313
695.90 0.366857
696.00 0.3666829
696.10 0.3665088
696.20 0.3663348
696.30 0.3661609
696.40 0.3659871
696.50 0.3658134
696.60 0.3656375
696.70 0.3654611
696.80 0.3652848
696.90 0.3651085
697.00 0.3649324
697.10 0.3647564
697.20 0.3645804
697.30 0.3644045
697.40 0.3642287
697.50 0.364053
697.60 0.3638774
697.70 0.3637019
697.80 0.3635264
697.90 0.363351
698.00 0.3631758
698.10 0.3630006
698.20 0.3628255
698.30 0.3626504
698.40 0.3624755
698.50 0.3623007
698.60 0.3621259
698.70 0.3619512
698.80 0.3617766
698.90 0.3616021
699.00 0.3614277
699.10 0.3612495
699.20 0.3610705
699.30 0.3608917
699.40 0.3607129
699.50 0.3605341
699.60 0.3603555
699.70 0.3601744
699.80 0.3599932
699.90 0.3598121
700.00 0.3596311
700.10 0.3594502
700.20 0.3592694
700.30 0.3590887
700.40 0.358908
700.50 0.3587275
700.60 0.358547
700.70 0.3583667
700.80 0.3581864
700.90 0.3580062
701.00 0.3578261
701.10 0.3576306
701.20 0.3574316
701.30 0.3572328
701.40 0.357034
701.50 0.3568353
701.60 0.3566367
701.70 0.3564383
701.80 0.3562399
701.90 0.3560416
702.00 0.3558434
702.10 0.3556453
702.20 0.3554474
702.30 0.3552495
702.40 0.3550517
702.50 0.354854
702.60 0.3545991
702.70 0.3543308
702.80 0.3540627
702.90 0.3537947
703.00 0.3535269
703.10 0.3532592
703.20 0.3529916
703.30 0.3527242
703.40 0.3524569
703.50 0.3521898
703.60 0.3519228
703.70 0.3516559
703.80 0.3513892
703.90 0.3511226
704.00 0.3508561
704.10 0.3505898
704.20 0.3501011
704.30 0.3495604
704.40 0.34902
704.50 0.3484799
704.60 0.34794
704.70 0.3474005
704.80 0.3468613
704.90 0.3463224
705.00 0.3457837
705.10 0.3452454
705.20 0.3439754
705.30 0.3425346
705.40 0.3410945
705.50 0.3396553
705.60 0.3382168
705.70 0.3367792
705.80 0.3332132
705.90 0.3291501
706.00 0.3250892
706.10 0.3210306
706.20 0.3118264
706.30 0.3014201
706.40 0.2835072
706.50 0.254674
706.60 0.2556464
706.70 0.2834488
706.80 0.297346
706.90 0.309579
707.00 0.3155889
707.10 0.3201377
707.20 0.3246838
707.30 0.3292274
707.40 0.3312484
707.50 0.3326774
707.60 0.3341056
707.70 0.3355329
707.80 0.3369594
707.90 0.3383851
708.00 0.3389251
708.10 0.3392573
708.20 0.3395893
708.30 0.3399211
708.40 0.3402527
708.50 0.3405841
708.60 0.3409152
708.70 0.3412462
708.80 0.341577
708.90 0.3419076
709.00 0.3419468
709.10 0.3419177
709.20 0.3418886
709.30 0.3418595
709.40 0.3418305
709.50 0.3418014
709.60 0.3417723
709.70 0.3417432
709.80 0.3417142
709.90 0.3416851
710.00 0.341656
710.10 0.341627
710.20 0.3415979
710.30 0.3415688
710.40 0.3415398
710.50 0.3415107
710.60 0.3414111
710.70 0.341295
710.80 0.341179
710.90 0.341063
711.00 0.3409471
711.10 0.3408312
711.20 0.3407153
711.30 0.3405996
711.40 0.3404838
711.50 0.3403681
711.60 0.3402525
711.70 0.3401369
711.80 0.3400214
711.90 0.3399059
712.00 0.3397905
712.10 0.3396556
712.20 0.3395161
712.30 0.3393768
712.40 0.3392374
712.50 0.3390982
712.60 0.338959
712.70 0.3388199
712.80 0.3386808
712.90 0.3385418
713.00 0.3384029
713.10 0.338264
713.20 0.3381252
713.30 0.3379865
713.40 0.3378478
713.50 0.3377092
713.60 0.3375706
713.70 0.3374307
713.80 0.3372878
713.90 0.337145
714.00 0.3370023
714.10 0.3368546
714.20 0.3367059
714.30 0.3365573
714.40 0.3364087
714.50 0.3362602
714.60 0.3361118
714.70 0.3359634
714.80 0.3358151
714.90 0.3356669
715.00 0.3355188
715.10 0.3353707
715.20 0.3352227
715.30 0.3350747
715.40 0.3349269
715.50 0.3347791
715.60 0.3346313
715.70 0.3344837
715.80 0.3343361
715.90 0.3341886
716.00 0.3340411
716.10 0.3338937
716.20 0.3337464
716.30 0.3335992
716.40 0.333452
716.50 0.3333049
716.60 0.3331572
716.70 0.3330094
716.80 0.3328617
716.90 0.332714
717.00 0.3325664
717.10 0.3324189
717.20 0.3322715
717.30 0.3321241
717.40 0.3319768
717.50 0.3318295
717.60 0.3316824
717.70 0.3315353
717.80 0.3313882
717.90 0.3312413
718.00 0.3310944
718.10 0.3309476
718.20 0.3307981
718.30 0.3306472
718.40 0.3304963
718.50 0.3303456
718.60 0.3301949
718.70 0.3300442
718.80 0.3298937
718.90 0.3297432
719.00 0.3295928
719.10 0.3294425
719.20 0.3292922
719.30 0.329142
719.40 0.3289919
719.50 0.3288418
719.60 0.3286918
719.70 0.3285419
719.80 0.3283921
719.90 0.3282423
720.00 0.3280926
720.10 0.327943
720.20 0.3277934
720.30 0.3276439
720.40 0.3274945
720.50 0.3273452
720.60 0.3271959
720.70 0.3270365
720.80 0.3268717
720.90 0.326719
721.00 0.3265669
721.10 0.3264149
721.20 0.326263
721.30 0.3261111
721.40 0.3259593
721.50 0.3258075
721.60 0.3256558
721.70 0.3255043
721.80 0.3253527
721.90 0.3252013
722.00 0.3250499
722.10 0.3248986
722.20 0.3247473
722.30 0.3245962
722.40 0.3244451
722.50 0.324294
722.60 0.3241431
722.70 0.3239906
722.80 0.3238374
722.90 0.3236842
723.00 0.3235311
723.10 0.323378
723.20 0.3232251
723.30 0.3230722
723.40 0.3229194
723.50 0.3227666
723.60 0.322614
723.70 0.3224614
723.80 0.3223088
723.90 0.3221564
724.00 0.322004
724.10 0.3218517
724.20 0.3216886
724.30 0.3215197
724.40 0.3213509
724.50 0.3211822
724.60 0.3210136
724.70 0.3208451
724.80 0.3206766
724.90 0.3205082
725.00 0.3203399
725.10 0.3201717
725.20 0.3200036
725.30 0.3198355
725.40 0.3196676
725.50 0.3194997
725.60 0.3193319
725.70 0.3191641
725.80 0.3189493
725.90 0.3187093
726.00 0.3184694
726.10 0.3182295
726.20 0.3179899
726.30 0.3177503
726.40 0.3175108
726.50 0.3172715
726.60 0.3170323
726.70 0.3167932
726.80 0.3163684
726.90 0.3158439
727.00 0.3153196
727.10 0.3147956
727.20 0.3142719
727.30 0.3137485
727.40 0.3124976
727.50 0.3108556
727.60 0.3092145
727.70 0.3075743
727.80 0.303475
727.90 0.2980537
728.00 0.2881907
728.10 0.2642476
728.20 0.2606755
728.30 0.2813603
728.40 0.2905136
728.50 0.2975394
728.60 0.3014367
728.70 0.3036498
728.80 0.3058616
728.90 0.3080723
729.00 0.3091661
729.10 0.3096589
729.20 0.3101514
729.30 0.3106436
729.40 0.3111355
729.50 0.3116271
729.60 0.3118071
729.70 0.3118193
729.80 0.3118315
729.90 0.3118437
730.00 0.3118559
730.10 0.3118681
730.20 0.3118802
730.30 0.3118923
730.40 0.3119044
730.50 0.3119165
730.60 0.311852
730.70 0.3117464
730.80 0.3116408
730.90 0.3115352
731.00 0.3114297
731.10 0.3113243
731.20 0.3112189
731.30 0.3111135
731.40 0.3110082
731.50 0.3109029
731.60 0.3107976
731.70 0.3106925
731.80 0.3105873
731.90 0.3104822
732.00 0.3103772
732.10 0.3102722
732.20 0.3101523
732.30 0.3100245
732.40 0.3098968
732.50 0.3097691
732.60 0.3096414
732.70 0.3095139
732.80 0.3093863
732.90 0.3092589
733.00 0.3091315
733.10 0.3090041
733.20 0.3088769
733.30 0.3087496
733.40 0.3086225
733.50 0.3084953
733.60 0.3083683
733.70 0.308236
733.80 0.308101
733.90 0.3079661
734.00 0.3078312
734.10 0.3076964
734.20 0.3075616
734.30 0.3074269
734.40 0.3072922
734.50 0.3071577
734.60 0.3070231
734.70 0.3068887
734.80 0.3067543
734.90 0.30662
735.00 0.3064857
735.10 0.3063515
735.20 0.3062173
735.30 0.3060826
735.40 0.305941
735.50 0.3057994
735.60 0.3056579
735.70 0.30552
735.80 0.3053841
735.90 0.3052483
736.00 0.3051126
736.10 0.3049769
736.20 0.3048412
736.30 0.3047057
736.40 0.3045702
736.50 0.3044347
736.60 0.3042993
736.70 0.304164
736.80 0.3040288
736.90 0.3038936
737.00 0.3037584
737.10 0.3036234
737.20 0.3034884
737.30 0.3033534
737.40 0.3032185
737.50 0.3030837
737.60 0.302949
737.70 0.3028143
737.80 0.3026796
737.90 0.3025451
738.00 0.3024106
738.10 0.3022761
738.20 0.3021415
738.30 0.3020067
738.40 0.301872
738.50 0.3017374
738.60 0.3016029
738.70 0.3014684
738.80 0.301334
738.90 0.3011996
739.00 0.3010653
739.10 0.300931
739.20 0.3007969
739.30 0.3006627
739.40 0.3005287
739.50 0.3003947
739.60 0.3002607
739.70 0.3001269
739.80 0.2999931
739.90 0.2998593
740.00 0.2997256
740.10 0.299592
740.20 0.2994584
740.30 0.2993249
740.40 0.2991915
740.50 0.2990581
740.60 0.2989248
740.70 0.2987915
740.80 0.2986583
740.90 0.2985252
741.00 0.2983921
741.10 0.2982591
741.20 0.2981261
741.30 0.2979932
741.40 0.2978604
741.50 0.2977276
741.60 0.2975949
741.70 0.2974622
741.80 0.2973296
741.90 0.2971971
742.00 0.2970646
742.10 0.2969322
742.20 0.2967999
742.30 0.2966676
742.40 0.2965354
742.50 0.2964032
742.60 0.2962711
742.70 0.2961386
742.80 0.2960057
742.90 0.2958729
743.00 0.2957402
743.10 0.2956075
743.20 0.2954749
743.30 0.2953423
743.40 0.2952098
743.50 0.2950774
743.60 0.294945
743.70 0.2948129
743.80 0.2946815
743.90 0.2945502
744.00 0.294419
744.10 0.2942878
744.20 0.2941567
744.30 0.2940256
744.40 0.2938946
744.50 0.2937637
744.60 0.2936328
744.70 0.2935019
744.80 0.2933712
744.90 0.2932405
745.00 0.2931098
745.10 0.2929793
745.20 0.2928487
745.30 0.2927183
745.40 0.2925879
745.50 0.2924575
745.60 0.2923272
745.70 0.292197
745.80 0.2920668
745.90 0.2919367
746.00 0.2918067
746.10 0.2916767
746.20 0.2915468
746.30 0.2914169
746.40 0.2912871
746.50 0.2911573
746.60 0.2910276
746.70 0.290898
746.80 0.2907684
746.90 0.2906389
747.00 0.2905095
747.10 0.2903801
747.20 0.2902507
747.30 0.2901214
747.40 0.2899922
747.50 0.2898631
747.60 0.289734
747.70 0.2896049
747.80 0.2894759
747.90 0.289347
748.00 0.2892181
748.10 0.2890893
748.20 0.2889606
748.30 0.2888319
748.40 0.2887032
748.50 0.2885747
748.60 0.2884461
748.70 0.2883177
748.80 0.2881893
748.90 0.2880609
749.00 0.2879326
749.10 0.2878044
749.20 0.2876762
749.30 0.2875481
749.40 0.2874201
749.50 0.2872921
749.60 0.2871641
749.70 0.2870363
749.80 0.2869084
749.90 0.2867807
750.00 0.286653
750.10 0.2865253
750.20 0.2863976
750.30 0.2862699
750.40 0.2861423
750.50 0.2860147
750.60 0.2858872
750.70 0.2857598
750.80 0.2856324
750.90 0.2855051
751.00 0.2853778
751.10 0.2852506
751.20 0.2851235
751.30 0.2849964
751.40 0.2848694
751.50 0.2847424
751.60 0.2846155
751.70 0.2844886
751.80 0.2843618
751.90 0.2842351
752.00 0.2841084
752.10 0.2839817
752.20 0.2838552
752.30 0.2837287
752.40 0.2836022
752.50 0.2834758
752.60 0.2833495
752.70 0.2832232
752.80 0.2830969
752.90 0.2829708
753.00 0.2828446
753.10 0.2827186
753.20 0.2825926
753.30 0.2824666
753.40 0.2823407
753.50 0.2822149
753.60 0.2820891
753.70 0.2819634
753.80 0.2818378
753.90 0.2817129
754.00 0.2815884
754.10 0.2814639
754.20 0.2813395
754.30 0.2812152
754.40 0.2810909
754.50 0.2809666
754.60 0.2808424
754.70 0.2807183
754.80 0.2805942
754.90 0.2804702
755.00 0.2803462
755.10 0.2802223
755.20 0.2800984
755.30 0.2799746
755.40 0.2798509
755.50 0.2797272
755.60 0.2796035
755.70 0.2794799
755.80 0.2793564
755.90 0.2792329
756.00 0.2791095
756.10 0.2789862
756.20 0.2788629
756.30 0.2787396
756.40 0.2786164
756.50 0.2784933
756.60 0.2783702
756.70 0.2782472
756.80 0.2781242
756.90 0.2780013
757.00 0.2778784
757.10 0.2777556
757.20 0.2776329
757.30 0.2775102
757.40 0.2773875
757.50 0.277265
757.60 0.2771426
757.70 0.2770206
757.80 0.2768987
757.90 0.2767768
758.00 0.276655
758.10 0.2765332
758.20 0.2764115
758.30 0.2762899
758.40 0.2761683
758.50 0.2760467
758.60 0.2759252
758.70 0.2758038
758.80 0.2756824
758.90 0.2755611
759.00 0.2754398
759.10 0.2753186
759.20 0.2751974
759.30 0.2750763
759.40 0.2749553
759.50 0.2748343
759.60 0.2747133
759.70 0.2745924
759.80 0.2744716
759.90 0.2743508
760.00 0.2742301
760.10 0.2741094
760.20 0.2739888
760.30 0.2738682
760.40 0.2737477
760.50 0.2736272
760.60 0.2735068
760.70 0.2733865
760.80 0.2732662
760.90 0.2731459
761.00 0.2730258
761.10 0.2729056
761.20 0.2727855
761.30 0.2726655
761.40 0.2725455
761.50 0.2724256
761.60 0.2723057
761.70 0.2721859
761.80 0.2720662
761.90 0.2719465
762.00 0.2718268
762.10 0.2717072
762.20 0.2715877
762.30 0.2714682
762.40 0.2713487
762.50 0.2712293
762.60 0.27111
762.70 0.2709907
762.80 0.2708715
762.90 0.2707523
763.00 0.2706332
763.10 0.2705141
763.20 0.2703951
763.30 0.2702762
763.40 0.2701572
763.50 0.2700384
763.60 0.2699196
763.70 0.2698008
763.80 0.2696821
763.90 0.2695635
764.00 0.2694449
764.10 0.2693264
764.20 0.2692079
764.30 0.2690894
764.40 0.2689711
764.50 0.2688527
764.60 0.2687345
764.70 0.2686162
764.80 0.2684981
764.90 0.26838
765.00 0.2682619
765.10 0.2681439
765.20 0.2680264
765.30 0.2679095
765.40 0.2677926
765.50 0.2676757
765.60 0.2675589
765.70 0.2674422
765.80 0.2673255
765.90 0.2672089
766.00 0.2670923
766.10 0.2669758
766.20 0.2668593
766.30 0.2667428
766.40 0.2666265
766.50 0.2665101
766.60 0.2663939
766.70 0.2662776
766.80 0.2661615
766.90 0.2660454
767.00 0.2659293
767.10 0.2658133
767.20 0.2656973
767.30 0.2655814
767.40 0.2654655
767.50 0.2653497
767.60 0.265234
767.70 0.2651183
767.80 0.2650026
767.90 0.264887
768.00 0.2647714
768.10 0.2646559
768.20 0.2645405
768.30 0.2644251
768.40 0.2643097
768.50 0.2641944
768.60 0.2640792
768.70 0.263964
768.80 0.2638488
768.90 0.2637337
769.00 0.2636187
769.10 0.2635037
769.20 0.2633888
769.30 0.2632739
769.40 0.263159
769.50 0.2630442
769.60 0.2629295
769.70 0.2628148
769.80 0.2627002
769.90 0.2625856
770.00 0.2624711
770.10 0.2623566
770.20 0.2622421
770.30 0.2621277
770.40 0.2620134
770.50 0.2618991
770.60 0.2617849
770.70 0.2616707
770.80 0.2615566
770.90 0.2614425
771.00 0.2613285
771.10 0.2612145
771.20 0.2611006
771.30 0.2609867
771.40 0.2608728
771.50 0.2607591
771.60 0.2606453
771.70 0.2605317
771.80 0.260418
771.90 0.2603045
772.00 0.2601909
772.10 0.2600774
772.20 0.259964
772.30 0.2598506
772.40 0.2597373
772.50 0.259624
772.60 0.2595108
772.70 0.2593976
772.80 0.2592845
772.90 0.2591723
773.00 0.2590602
773.10 0.2589482
773.20 0.2588362
773.30 0.2587242
773.40 0.2586123
773.50 0.2585004
773.60 0.2583886
773.70 0.2582769
773.80 0.2581651
773.90 0.2580535
774.00 0.2579419
774.10 0.2578303
774.20 0.2577188
774.30 0.2576073
774.40 0.2574959
774.50 0.2573845
774.60 0.2572732
774.70 0.2571619
774.80 0.2570507
774.90 0.2569395
775.00 0.2568284
775.10 0.2567173
775.20 0.2566063
775.30 0.2564953
775.40 0.2563844
775.50 0.2562735
775.60 0.2561627
775.70 0.2560519
775.80 0.2559411
775.90 0.2558304
776.00 0.2557198
776.10 0.2556092
776.20 0.2554987
776.30 0.2553882
776.40 0.2552777
776.50 0.2551673
776.60 0.255057
776.70 0.2549467
776.80 0.2548364
776.90 0.2547262
777.00 0.2546161
777.10 0.254506
777.20 0.2543959
777.30 0.2542859
777.40 0.2541759
777.50 0.254066
777.60 0.2539561
777.70 0.2538463
777.80 0.2537366
777.90 0.2536268
778.00 0.2535172
778.10 0.2534075
778.20 0.253298
778.30 0.2531884
778.40 0.2530789
778.50 0.2529695
778.60 0.2528601
778.70 0.2527508
778.80 0.2526415
778.90 0.2525323
779.00 0.2524231
779.10 0.2523139
779.20 0.2522048
779.30 0.2520958
779.40 0.2519868
779.50 0.2518778
779.60 0.2517689
779.70 0.25166
779.80 0.2515512
779.90 0.2514424
780.00 0.2513337
780.10 0.251225
780.20 0.2511164
780.30 0.2510078
780.40 0.2508993
780.50 0.2507908
780.60 0.2506825
780.70 0.2505743
780.80 0.2504662
780.90 0.2503581
781.00 0.25025
781.10 0.250142
781.20 0.250034
781.30 0.2499261
781.40 0.2498182
781.50 0.2497104
781.60 0.2496026
781.70 0.2494949
781.80 0.2493872
781.90 0.2492796
782.00 0.249172
782.10 0.2490645
782.20 0.248957
782.30 0.2488495
782.40 0.2487421
782.50 0.2486347
782.60 0.2485274
782.70 0.2484202
782.80 0.248313
782.90 0.2482058
783.00 0.2480987
783.10 0.2479916
783.20 0.2478846
783.30 0.2477776
783.40 0.2476706
783.50 0.2475638
783.60 0.2474569
783.70 0.2473501
783.80 0.2472434
783.90 0.2471367
784.00 0.24703
784.10 0.2469234
784.20 0.2468168
784.30 0.2467103
784.40 0.2466038
784.50 0.2464974
784.60 0.2463912
784.70 0.2462854
784.80 0.2461796
784.90 0.2460739
785.00 0.2459682
785.10 0.2458625
785.20 0.245757
785.30 0.2456514
785.40 0.2455459
785.50 0.2454405
785.60 0.245335
785.70 0.2452297
785.80 0.2451244
785.90 0.2450191
786.00 0.2449139
786.10 0.2448087
786.20 0.2447036
786.30 0.2445985
786.40 0.2444934
786.50 0.2443884
786.60 0.2442835
786.70 0.2441786
786.80 0.2440737
786.90 0.2439689
787.00 0.2438641
787.10 0.2437594
787.20 0.2436547
787.30 0.2435501
787.40 0.2434455
787.50 0.243341
787.60 0.2432365
787.70 0.243132
787.80 0.2430276
787.90 0.2429232
788.00 0.2428189
788.10 0.2427146
788.20 0.2426104
788.30 0.2425062
788.40 0.2424022
788.50 0.2422983
788.60 0.2421944
788.70 0.2420906
788.80 0.2419868
788.90 0.241883
789.00 0.2417793
789.10 0.2416757
789.20 0.2415721
789.30 0.2414685
789.40 0.241365
789.50 0.2412615
789.60 0.2411581
789.70 0.2410547
789.80 0.2409513
789.90 0.240848
790.00 0.2407448
790.10 0.2406416
790.20 0.2405384
790.30 0.2404353
790.40 0.2403322
790.50 0.2402292
790.60 0.2401262
790.70 0.2400232
790.80 0.2399203
790.90 0.2398175
791.00 0.2397147
791.10 0.2396119
791.20 0.2395092
791.30 0.2394065
791.40 0.2393039
791.50 0.2392013
791.60 0.2390987
791.70 0.2389962
791.80 0.2388938
791.90 0.2387914
792.00 0.238689
792.10 0.2385867
792.20 0.2384844
792.30 0.2383824
792.40 0.2382811
792.50 0.2381798
792.60 0.2380785
792.70 0.2379773
792.80 0.2378762
792.90 0.2377751
793.00 0.237674
793.10 0.237573
793.20 0.237472
793.30 0.2373711
793.40 0.2372702
793.50 0.2371693
793.60 0.2370685
793.70 0.2369678
793.80 0.236867
793.90 0.2367664
794.00 0.2366657
794.10 0.2365651
794.20 0.2364646
794.30 0.2363641
794.40 0.2362636
794.50 0.2361632
794.60 0.2360628
794.70 0.2359625
794.80 0.2358622
794.90 0.235762
795.00 0.2356618
795.10 0.2355616
795.20 0.2354615
795.30 0.2353614
795.40 0.2352614
795.50 0.2351614
795.60 0.2350615
795.70 0.2349616
795.80 0.2348617
795.90 0.2347619
796.00 0.2346621
796.10 0.2345624
796.20 0.2344627
796.30 0.234363
796.40 0.2342634
796.50 0.2341638
796.60 0.2340643
796.70 0.2339648
796.80 0.2338653
796.90 0.2337659
797.00 0.2336666
797.10 0.2335672
797.20 0.233468
797.30 0.2333687
797.40 0.2332695
797.50 0.2331704
797.60 0.2330713
797.70 0.2329722
797.80 0.2328732
797.90 0.2327742
798.00 0.2326752
798.10 0.2325763
798.20 0.2324775
798.30 0.2323787
798.40 0.2322799
798.50 0.2321812
798.60 0.2320825
798.70 0.2319838
798.80 0.2318852
798.90 0.2317866
799.00 0.2316881
799.10 0.2315896
799.20 0.2314912
799.30 0.2313928
799.40 0.2312945
799.50 0.2311962
799.60 0.2310979
799.70 0.2309997
799.80 0.2309015
799.90 0.2308033
800.00 0.2307052
800.10 0.2306072
800.20 0.2305091
800.30 0.2304112
800.40 0.2303132
800.50 0.2302153
800.60 0.2301175
800.70 0.2300197
800.80 0.2299219
800.90 0.2298242
801.00 0.2297265
801.10 0.2296289
801.20 0.2295313
801.30 0.2294337
801.40 0.2293362
801.50 0.2292387
801.60 0.2291413
801.70 0.2290439
801.80 0.2289465
801.90 0.2288492
802.00 0.2287519
802.10 0.2286547
802.20 0.2285575
802.30 0.2284604
802.40 0.2283633
802.50 0.2282662
802.60 0.2281692
802.70 0.2280722
802.80 0.2279753
802.90 0.2278784
803.00 0.2277815
803.10 0.2276847
803.20 0.2275879
803.30 0.2274912
803.40 0.2273945
803.50 0.2272979
803.60 0.2272012
803.70 0.2271047
803.80 0.2270082
803.90 0.2269117
804.00 0.2268152
804.10 0.2267188
804.20 0.2266226
804.30 0.2265271
804.40 0.2264317
804.50 0.2263362
804.60 0.2262408
804.70 0.2261455
804.80 0.2260502
804.90 0.2259549
805.00 0.2258597
805.10 0.2257645
805.20 0.2256694
805.30 0.2255743
805.40 0.2254792
805.50 0.2253842
805.60 0.2252892
805.70 0.2251942
805.80 0.2250993
805.90 0.2250045
806.00 0.2249097
806.10 0.2248149
806.20 0.2247201
806.30 0.2246254
806.40 0.2245308
806.50 0.2244361
806.60 0.2243416
806.70 0.224247
806.80 0.2241525
806.90 0.224058
807.00 0.2239636
807.10 0.2238692
807.20 0.2237749
807.30 0.2236806
807.40 0.2235863
807.50 0.2234921
807.60 0.2233979
807.70 0.2233038
807.80 0.2232097
807.90 0.2231156
808.00 0.2230216
808.10 0.2229276
808.20 0.2228337
808.30 0.2227406
808.40 0.2226475
808.50 0.2225545
808.60 0.2224616
808.70 0.2223686
808.80 0.2222758
808.90 0.2221829
809.00 0.2220901
809.10 0.2219973
809.20 0.2219046
809.30 0.2218119
809.40 0.2217193
809.50 0.2216267
809.60 0.2215341
809.70 0.2214416
809.80 0.2213491
809.90 0.2212566
810.00 0.2211642
810.10 0.2210718
810.20 0.2209795
810.30 0.2208872
810.40 0.2207949
810.50 0.2207027
810.60 0.2206105
810.70 0.2205184
810.80 0.2204263
810.90 0.2203342
811.00 0.2202422
811.10 0.2201502
811.20 0.2200582
811.30 0.2199663
811.40 0.2198744
811.50 0.2197826
811.60 0.2196908
811.70 0.219599
811.80 0.2195073
811.90 0.2194156
812.00 0.219324
812.10 0.2192324
812.20 0.2191408
812.30 0.219049
812.40 0.2189572
812.50 0.2188655
812.60 0.2187737
812.70 0.218682
812.80 0.2185904
812.90 0.2184987
813.00 0.2184072
813.10 0.2183156
813.20 0.2182241
813.30 0.2181327
813.40 0.2180412
813.50 0.2179498
813.60 0.2178585
813.70 0.2177672
813.80 0.2176759
813.90 0.2175847
814.00 0.2174935
814.10 0.2174023
814.20 0.2173112
814.30 0.2172201
814.40 0.2171291
814.50 0.217038
814.60 0.2169471
814.70 0.2168561
814.80 0.2167653
814.90 0.2166744
815.00 0.2165836
815.10 0.2164928
815.20 0.2164021
815.30 0.2163114
815.40 0.2162207
815.50 0.2161301
815.60 0.2160395
815.70 0.2159489
815.80 0.2158584
815.90 0.2157679
816.00 0.2156775
816.10 0.2155871
816.20 0.2154968
816.30 0.2154064
816.40 0.2153161
816.50 0.2152259
816.60 0.2151357
816.70 0.2150455
816.80 0.2149554
816.90 0.2148653
817.00 0.2147752
817.10 0.2146852
817.20 0.2145952
817.30 0.2145053
817.40 0.2144154
817.50 0.2143255
817.60 0.2142357
817.70 0.2141459
817.80 0.2140561
817.90 0.2139664
818.00 0.2138767
818.10 0.213787
818.20 0.2136974
818.30 0.2136079
818.40 0.2135183
818.50 0.2134288
818.60 0.2133394
818.70 0.21325
818.80 0.2131606
818.90 0.2130712
819.00 0.2129819
819.10 0.2128926
819.20 0.2128034
819.30 0.2127161
819.40 0.21263
819.50 0.212544
819.60 0.212458
819.70 0.2123721
819.80 0.2122862
819.90 0.2122003
820.00 0.2121144
820.10 0.2120317
820.20 0.2119428
820.30 0.2118493
820.40 0.2117592
820.50 0.2116715
820.60 0.2115839
820.70 0.2114964
820.80 0.2114088
820.90 0.2113213
821.00 0.2112339
821.10 0.2111465
821.20 0.2110591
821.30 0.2109717
821.40 0.2108844
821.50 0.2107972
821.60 0.2107099
821.70 0.2106227
821.80 0.2105355
821.90 0.2104484
822.00 0.2103613
822.10 0.2102743
822.20 0.2101872
822.30 0.2101003
822.40 0.2100133
822.50 0.2099264
822.60 0.2098395
822.70 0.2097527
822.80 0.2096659
822.90 0.2095791
823.00 0.2094924
823.10 0.2094057
823.20 0.209319
823.30 0.2092324
823.40 0.2091458
823.50 0.2090592
823.60 0.2089727
823.70 0.2088862
823.80 0.2087998
823.90 0.2087134
824.00 0.208627
824.10 0.2085407
824.20 0.2084544
824.30 0.2083681
824.40 0.2082819
824.50 0.2081957
824.60 0.2081095
824.70 0.2080234
824.80 0.2079373
824.90 0.2078513
825.00 0.2077652
825.10 0.2076793
825.20 0.2075933
825.30 0.2075074
825.40 0.2074215
825.50 0.2073357
825.60 0.2072499
825.70 0.2071641
825.80 0.2070784
825.90 0.2069927
826.00 0.206907
826.10 0.2068214
826.20 0.2067358
826.30 0.2066501
826.40 0.2065643
826.50 0.2064785
826.60 0.2063928
826.70 0.2063071
826.80 0.2062215
826.90 0.2061359
827.00 0.2060503
827.10 0.2059648
827.20 0.2058793
827.30 0.2057938
827.40 0.2057084
827.50 0.205623
827.60 0.2055376
827.70 0.2054523
827.80 0.205367
827.90 0.2052817
828.00 0.2051965
828.10 0.2051113
828.20 0.2050261
828.30 0.204941
828.40 0.2048559
828.50 0.2047709
828.60 0.2046864
828.70 0.2046023
828.80 0.2045183
828.90 0.2044343
829.00 0.2043503
829.10 0.2042664
829.20 0.2041825
829.30 0.2040987
829.40 0.2040149
829.50 0.2039311
829.60 0.2038473
829.70 0.2037636
829.80 0.2036799
829.90 0.2035963
830.00 0.2035127
830.10 0.2034291
830.20 0.2033456
830.30 0.2032621
830.40 0.2031786
830.50 0.2030952
830.60 0.2030117
830.70 0.2029284
830.80 0.202845
830.90 0.2027617
831.00 0.2026785
831.10 0.2025952
831.20 0.202512
831.30 0.2024289
831.40 0.2023457
831.50 0.2022626
831.60 0.2021796
831.70 0.2020966
831.80 0.2020136
831.90 0.2019306
832.00 0.2018477
832.10 0.2017648
832.20 0.2016819
832.30 0.2015991
832.40 0.2015163
832.50 0.2014336
832.60 0.2013508
832.70 0.2012681
832.80 0.2011855
832.90 0.2011029
833.00 0.2010203
833.10 0.2009377
833.20 0.2008552
833.30 0.2007727
833.40 0.2006903
833.50 0.2006079
833.60 0.2005255
833.70 0.2004431
833.80 0.2003608
833.90 0.2002785
834.00 0.2001963
834.10 0.2001141
834.20 0.2000319
834.30 0.1999497
834.40 0.1998676
834.50 0.1997855
834.60 0.1997035
834.70 0.1996215
834.80 0.1995395
834.90 0.1994575
835.00 0.1993756
835.10 0.1992937
835.20 0.1992119
835.30 0.1991301
835.40 0.1990483
835.50 0.1989666
835.60 0.1988849
835.70 0.1988032
835.80 0.1987215
835.90 0.1986399
836.00 0.1985583
836.10 0.1984768
836.20 0.1983953
836.30 0.1983138
836.40 0.1982324
836.50 0.1981509
836.60 0.1980696
836.70 0.1979882
836.80 0.1979069
836.90 0.1978261
837.00 0.1977456
837.10 0.1976651
837.20 0.1975846
837.30 0.1975042
837.40 0.1974237
837.50 0.1973434
837.60 0.197263
837.70 0.1971827
837.80 0.1971024
837.90 0.1970222
838.00 0.196942
838.10 0.1968618
838.20 0.1967817
838.30 0.1967015
838.40 0.1966215
838.50 0.1965414
838.60 0.1964614
838.70 0.1963814
838.80 0.1963015
838.90 0.1962215
839.00 0.1961417
839.10 0.1960618
839.20 0.195982
839.30 0.1959022
839.40 0.1958224
839.50 0.1957427
839.60 0.195663
839.70 0.1955834
839.80 0.1955037
839.90 0.1954242
840.00 0.1953446
840.10 0.1952651
840.20 0.1951856
840.30 0.1951061
840.40 0.1950267
840.50 0.1949473
840.60 0.1948679
840.70 0.1947886
840.80 0.1947093
840.90 0.19463
841.00 0.1945508
841.10 0.1944716
841.20 0.1943924
841.30 0.1943132
841.40 0.1942341
841.50 0.1941551
841.60 0.194076
841.70 0.193997
841.80 0.1939181
841.90 0.1938391
842.00 0.1937602
842.10 0.1936813
842.20 0.1936025
842.30 0.1935237
842.40 0.1934449
842.50 0.1933661
842.60 0.1932874
842.70 0.1932087
842.80 0.1931301
842.90 0.1930515
843.00 0.1929729
843.10 0.1928943
843.20 0.1928158
843.30 0.1927373
843.40 0.1926588
843.50 0.1925804
843.60 0.192502
843.70 0.1924236
843.80 0.1923453
843.90 0.192267
844.00 0.1921887
844.10 0.1921105
844.20 0.1920323
844.30 0.1919541
844.40 0.1918759
844.50 0.1917978
844.60 0.1917197
844.70 0.1916417
844.80 0.1915637
844.90 0.1914857
845.00 0.1914077
845.10 0.1913298
845.20 0.1912519
845.30 0.1911744
845.40 0.1910968
845.50 0.1910194
845.60 0.1909419
845.70 0.1908645
845.80 0.1907871
845.90 0.1907097
846.00 0.1906324
846.10 0.1905551
846.20 0.1904779
846.30 0.1904006
846.40 0.1903234
846.50 0.1902463
846.60 0.1901691
846.70 0.190092
846.80 0.1900149
846.90 0.1899379
847.00 0.1898609
847.10 0.1897839
847.20 0.1897069
847.30 0.18963
847.40 0.1895531
847.50 0.1894763
847.60 0.1893994
847.70 0.1893226
847.80 0.1892459
847.90 0.1891691
848.00 0.1890924
848.10 0.1890157
848.20 0.1889391
848.30 0.1888625
848.40 0.1887859
848.50 0.1887094
848.60 0.1886328
848.70 0.1885564
848.80 0.1884799
848.90 0.1884035
849.00 0.1883271
849.10 0.1882507
849.20 0.1881744
849.30 0.1880981
849.40 0.1880218
849.50 0.1879455
849.60 0.1878693
849.70 0.1877932
849.80 0.187717
849.90 0.1876409
850.00 0.1875648
850.10 0.1874887
850.20 0.1874127
850.30 0.1873367
850.40 0.1872607
850.50 0.1871848
850.60 0.1871089
850.70 0.187033
850.80 0.1869572
850.90 0.1868814
851.00 0.1868056
851.10 0.1867298
851.20 0.1866541
851.30 0.1865784
851.40 0.1865027
851.50 0.1864271
851.60 0.1863515
851.70 0.1862759
851.80 0.1862004
851.90 0.1861249
852.00 0.1860494
852.10 0.185974
852.20 0.1858985
852.30 0.1858232
852.40 0.1857478
852.50 0.1856725
852.60 0.1855972
852.70 0.1855219
852.80 0.1854467
852.90 0.1853714
853.00 0.1852963
853.10 0.1852211
853.20 0.185146
853.30 0.1850709
853.40 0.1849959
853.50 0.1849208
853.60 0.1848458
853.70 0.1847714
853.80 0.1846974
853.90 0.1846235
854.00 0.1845497
854.10 0.1844758
854.20 0.184402
854.30 0.1843282
854.40 0.1842545
854.50 0.1841807
854.60 0.1841071
854.70 0.1840334
854.80 0.1839598
854.90 0.1838862
855.00 0.1838126
855.10 0.183739
855.20 0.1836655
855.30 0.183592
855.40 0.1835186
855.50 0.1834451
855.60 0.1833717
855.70 0.1832984
855.80 0.183225
855.90 0.1831517
856.00 0.1830784
856.10 0.1830052
856.20 0.182932
856.30 0.1828588
856.40 0.1827856
856.50 0.1827125
856.60 0.1826394
856.70 0.1825663
856.80 0.1824932
856.90 0.1824202
857.00 0.1823472
857.10 0.1822743
857.20 0.1822013
857.30 0.1821284
857.40 0.1820555
857.50 0.1819827
857.60 0.1819099
857.70 0.1818371
857.80 0.1817643
857.90 0.1816916
858.00 0.1816189
858.10 0.1815462
858.20 0.1814736
858.30 0.181401
858.40 0.1813284
858.50 0.1812558
858.60 0.1811833
858.70 0.1811108
858.80 0.1810384
858.90 0.1809659
859.00 0.1808935
859.10 0.1808211
859.20 0.1807488
859.30 0.1806764
859.40 0.1806041
859.50 0.1805319
859.60 0.1804596
859.70 0.1803874
859.80 0.1803152
859.90 0.1802431
860.00 0.180171
860.10 0.1800989
860.20 0.1800268
860.30 0.1799548
860.40 0.1798828
860.50 0.1798108
860.60 0.1797388
860.70 0.1796669
860.80 0.179595
860.90 0.1795231
861.00 0.1794513
861.10 0.1793795
861.20 0.1793077
861.30 0.179236
861.40 0.1791642
861.50 0.1790925
861.60 0.1790209
861.70 0.1789492
861.80 0.1788776
861.90 0.178806
862.00 0.1787345
862.10 0.178663
862.20 0.1785915
862.30 0.1785203
862.40 0.1784492
862.50 0.1783781
862.60 0.178307
862.70 0.178236
862.80 0.1781649
862.90 0.1780939
863.00 0.178023
863.10 0.177952
863.20 0.1778811
863.30 0.1778102
863.40 0.1777393
863.50 0.1776685
863.60 0.1775977
863.70 0.1775269
863.80 0.1774562
863.90 0.1773855
864.00 0.1773148
864.10 0.1772441
864.20 0.1771735
864.30 0.1771029
864.40 0.1770323
864.50 0.1769618
864.60 0.1768912
864.70 0.1768207
864.80 0.1767503
864.90 0.1766798
865.00 0.1766094
865.10 0.176539
865.20 0.1764687
865.30 0.1763983
865.40 0.176328
865.50 0.1762578
865.60 0.1761875
865.70 0.1761173
865.80 0.1760471
865.90 0.175977
866.00 0.1759068
866.10 0.1758367
866.20 0.1757666
866.30 0.1756966
866.40 0.1756266
866.50 0.1755566
866.60 0.1754866
866.70 0.1754167
866.80 0.1753468
866.90 0.1752769
867.00 0.175207
867.10 0.1751372
867.20 0.1750674
867.30 0.1749976
867.40 0.1749279
867.50 0.1748581
867.60 0.1747884
867.70 0.1747188
867.80 0.1746491
867.90 0.1745795
868.00 0.1745099
868.10 0.1744404
868.20 0.1743709
868.30 0.1743014
868.40 0.1742319
868.50 0.1741624
868.60 0.174093
868.70 0.1740236
868.80 0.1739543
868.90 0.1738849
869.00 0.1738156
869.10 0.1737463
869.20 0.1736771
869.30 0.1736079
869.40 0.1735387
869.50 0.1734695
869.60 0.1734003
869.70 0.1733312
869.80 0.1732621
869.90 0.1731931
870.00 0.173124
870.10 0.173055
870.20 0.172986
870.30 0.1729171
870.40 0.1728482
870.50 0.1727793
870.60 0.1727104
870.70 0.1726415
870.80 0.1725727
870.90 0.1725048
871.00 0.172437
871.10 0.1723692
871.20 0.1723014
871.30 0.1722337
871.40 0.1721659
871.50 0.1720982
871.60 0.1720306
871.70 0.1719629
871.80 0.1718953
871.90 0.1718278
872.00 0.1717602
872.10 0.1716927
872.20 0.1716252
872.30 0.1715577
872.40 0.1714902
872.50 0.1714228
872.60 0.1713554
872.70 0.171288
872.80 0.1712207
872.90 0.1711534
873.00 0.1710861
873.10 0.1710188
873.20 0.1709516
873.30 0.1708844
873.40 0.1708172
873.50 0.17075
873.60 0.1706829
873.70 0.1706158
873.80 0.1705487
873.90 0.1704816
874.00 0.1704146
874.10 0.1703476
874.20 0.1702806
874.30 0.1702137
874.40 0.1701468
874.50 0.1700799
874.60 0.170013
874.70 0.1699461
874.80 0.1698793
874.90 0.1698125
875.00 0.1697458
875.10 0.169679
875.20 0.1696123
875.30 0.1695456
875.40 0.1694789
875.50 0.1694123
875.60 0.1693457
875.70 0.1692791
875.80 0.1692126
875.90 0.169146
876.00 0.1690795
876.10 0.169013
876.20 0.1689466
876.30 0.1688801
876.40 0.1688137
876.50 0.1687474
876.60 0.168681
876.70 0.1686147
876.80 0.1685484
876.90 0.1684821
877.00 0.1684159
877.10 0.1683496
877.20 0.1682834
877.30 0.1682173
877.40 0.1681511
877.50 0.168085
877.60 0.1680189
877.70 0.1679528
877.80 0.1678868
877.90 0.1678208
878.00 0.1677548
878.10 0.1676888
878.20 0.1676229
878.30 0.167557
878.40 0.1674911
878.50 0.1674252
878.60 0.1673594
878.70 0.1672936
878.80 0.1672278
878.90 0.167162
879.00 0.1670963
879.10 0.1670306
879.20 0.1669649
879.30 0.1668992
879.40 0.1668336
879.50 0.166768
879.60 0.1667027
879.70 0.1666374
879.80 0.1665721
879.90 0.1665069
880.00 0.1664417
880.10 0.1663765
880.20 0.1663114
880.30 0.1662462
880.40 0.1661811
880.50 0.1661161
880.60 0.166051
880.70 0.165986
880.80 0.165921
880.90 0.165856
881.00 0.1657911
881.10 0.1657261
881.20 0.1656612
881.30 0.1655964
881.40 0.1655315
881.50 0.1654667
881.60 0.1654019
881.70 0.1653371
881.80 0.1652724
881.90 0.1652076
882.00 0.1651429
882.10 0.1650783
882.20 0.1650136
882.30 0.164949
882.40 0.1648844
882.50 0.1648198
882.60 0.1647553
882.70 0.1646908
882.80 0.1646263
882.90 0.1645618
883.00 0.1644973
883.10 0.1644329
883.20 0.1643685
883.30 0.1643041
883.40 0.1642398
883.50 0.1641755
883.60 0.1641112
883.70 0.1640469
883.80 0.1639826
883.90 0.1639184
884.00 0.1638542
884.10 0.16379
884.20 0.1637259
884.30 0.1636617
884.40 0.1635976
884.50 0.1635336
884.60 0.1634695
884.70 0.1634055
884.80 0.1633415
884.90 0.1632775
885.00 0.1632135
885.10 0.1631496
885.20 0.1630857
885.30 0.1630218
885.40 0.1629579
885.50 0.1628941
885.60 0.1628303
885.70 0.1627665
885.80 0.1627028
885.90 0.162639
886.00 0.1625753
886.10 0.1625116
886.20 0.162448
886.30 0.1623843
886.40 0.1623207
886.50 0.1622571
886.60 0.1621936
886.70 0.16213
886.80 0.1620665
886.90 0.162003
887.00 0.1619396
887.10 0.1618761
887.20 0.1618127
887.30 0.1617493
887.40 0.1616859
887.50 0.1616226
887.60 0.1615593
887.70 0.161496
887.80 0.1614327
887.90 0.1613695
888.00 0.1613063
888.10 0.1612431
888.20 0.1611799
888.30 0.1611167
888.40 0.1610544
888.50 0.1609922
888.60 0.16093
888.70 0.1608678
888.80 0.1608057
888.90 0.1607436
889.00 0.1606815
889.10 0.1606194
889.20 0.1605574
889.30 0.1604954
889.40 0.1604334
889.50 0.1603714
889.60 0.1603094
889.70 0.1602475
889.80 0.1601856
889.90 0.1601237
890.00 0.1600619
890.10 0.16
890.20 0.1599382
890.30 0.1598765
890.40 0.1598147
890.50 0.159753
890.60 0.1596913
890.70 0.1596296
890.80 0.1595679
890.90 0.1595063
891.00 0.1594446
891.10 0.159383
891.20 0.1593215
891.30 0.1592599
891.40 0.1591984
891.50 0.1591369
891.60 0.1590754
891.70 0.159014
891.80 0.1589526
891.90 0.1588912
892.00 0.1588298
892.10 0.1587684
892.20 0.1587071
892.30 0.1586458
892.40 0.1585845
892.50 0.1585232
892.60 0.158462
892.70 0.1584008
892.80 0.1583396
892.90 0.1582784
893.00 0.1582173
893.10 0.1581561
893.20 0.158095
893.30 0.158034
893.40 0.1579729
893.50 0.1579119
893.60 0.1578509
893.70 0.1577899
893.80 0.1577289
893.90 0.157668
894.00 0.1576071
894.10 0.1575462
894.20 0.1574853
894.30 0.1574245
894.40 0.1573637
894.50 0.1573029
894.60 0.1572421
894.70 0.1571813
894.80 0.1571206
894.90 0.1570599
895.00 0.1569992
895.10 0.1569386
895.20 0.1568779
895.30 0.1568173
895.40 0.1567567
895.50 0.1566962
895.60 0.1566356
895.70 0.1565751
895.80 0.1565146
895.90 0.1564542
896.00 0.1563937
896.10 0.1563333
896.20 0.1562729
896.30 0.1562125
896.40 0.1561521
896.50 0.1560918
896.60 0.1560315
896.70 0.1559712
896.80 0.1559109
896.90 0.1558507
897.00 0.1557905
897.10 0.1557303
897.20 0.1556701
897.30 0.1556102
897.40 0.1555504
897.50 0.1554905
897.60 0.1554307
897.70 0.1553709
897.80 0.1553111
897.90 0.1552513
898.00 0.1551916
898.10 0.1551319
898.20 0.1550722
898.30 0.1550125
898.40 0.1549529
898.50 0.1548932
898.60 0.1548336
898.70 0.1547741
898.80 0.1547145
898.90 0.154655
899.00 0.1545955
899.10 0.154536
899.20 0.1544765
899.30 0.1544171
899.40 0.1543577
899.50 0.1542983
899.60 0.1542389
899.70 0.1541795
899.80 0.1541202
899.90 0.1540609
900.00 0.1540016
900.10 0.1539423
900.20 0.1538831
900.30 0.1538239
900.40 0.1537647
900.50 0.1537055
900.60 0.1536464
900.70 0.1535873
900.80 0.1535281
900.90 0.1534691
901.00 0.15341
901.10 0.153351
901.20 0.153292
901.30 0.153233
901.40 0.153174
901.50 0.153115
901.60 0.1530561
901.70 0.1529972
901.80 0.1529383
901.90 0.1528795
902.00 0.1528206
902.10 0.1527618
902.20 0.152703
902.30 0.1526443
902.40 0.1525855
902.50 0.1525268
902.60 0.1524681
902.70 0.1524094
902.80 0.1523508
902.90 0.1522921
903.00 0.1522335
903.10 0.1521749
903.20 0.1521164
903.30 0.1520578
903.40 0.1519993
903.50 0.1519408
903.60 0.1518823
903.70 0.1518239
903.80 0.1517654
903.90 0.151707
904.00 0.1516486
904.10 0.1515902
904.20 0.1515319
904.30 0.1514736
904.40 0.1514153
904.50 0.151357
904.60 0.1512987
904.70 0.1512405
904.80 0.1511823
904.90 0.1511241
905.00 0.1510659
905.10 0.1510078
905.20 0.1509496
905.30 0.1508915
905.40 0.1508335
905.50 0.1507754
905.60 0.1507174
905.70 0.1506593
905.80 0.1506014
905.90 0.1505434
906.00 0.1504854
906.10 0.1504275
906.20 0.1503699
906.30 0.1503128
906.40 0.1502558
906.50 0.1501988
906.60 0.1501418
906.70 0.1500848
906.80 0.1500278
906.90 0.1499709
907.00 0.149914
907.10 0.1498571
907.20 0.1498003
907.30 0.1497434
907.40 0.1496866
907.50 0.1496298
907.60 0.149573
907.70 0.1495163
907.80 0.1494595
907.90 0.1494028
908.00 0.1493461
908.10 0.1492894
908.20 0.1492328
908.30 0.1491762
908.40 0.1491196
908.50 0.149063
908.60 0.1490064
908.70 0.1489499
908.80 0.1488933
908.90 0.1488368
909.00 0.1487804
909.10 0.1487239
909.20 0.1486675
909.30 0.1486111
909.40 0.1485547
909.50 0.1484983
909.60 0.1484419
909.70 0.1483856
909.80 0.1483293
909.90 0.148273
910.00 0.1482167
910.10 0.1481605
910.20 0.1481043
910.30 0.1480481
910.40 0.1479919
910.50 0.1479357
910.60 0.1478796
910.70 0.1478235
910.80 0.1477674
910.90 0.1477113
911.00 0.1476552
911.10 0.1475992
911.20 0.1475432
911.30 0.1474872
911.40 0.1474312
911.50 0.1473753
911.60 0.1473193
911.70 0.1472634
911.80 0.1472075
911.90 0.1471517
912.00 0.1470958
912.10 0.14704
912.20 0.1469842
912.30 0.1469284
912.40 0.1468726
912.50 0.1468169
912.60 0.1467612
912.70 0.1467055
912.80 0.1466498
912.90 0.1465941
913.00 0.1465385
913.10 0.1464829
913.20 0.1464273
913.30 0.1463717
913.40 0.1463162
913.50 0.1462606
913.60 0.1462051
913.70 0.1461496
913.80 0.1460942
913.90 0.1460387
914.00 0.1459833
914.10 0.1459279
914.20 0.1458725
914.30 0.1458171
914.40 0.1457618
914.50 0.1457064
914.60 0.1456511
914.70 0.1455958
914.80 0.1455406
914.90 0.1454853
915.00 0.1454301
915.10 0.1453749
915.20 0.1453197
915.30 0.1452643
915.40 0.1452089
915.50 0.1451534
915.60 0.145098
915.70 0.1450426
915.80 0.1449872
915.90 0.1449318
916.00 0.1448765
916.10 0.1448211
916.20 0.1447658
916.30 0.1447105
916.40 0.1446553
916.50 0.1446
916.60 0.1445448
916.70 0.1444896
916.80 0.1444344
916.90 0.1443792
917.00 0.1443241
917.10 0.144269
917.20 0.1442139
917.30 0.1441588
917.40 0.1441037
917.50 0.1440487
917.60 0.1439937
917.70 0.1439387
917.80 0.1438837
917.90 0.1438287
918.00 0.1437738
918.10 0.1437189
918.20 0.143664
918.30 0.1436091
918.40 0.1435542
918.50 0.1434994
918.60 0.1434446
918.70 0.1433898
918.80 0.143335
918.90 0.1432803
919.00 0.1432255
919.10 0.1431708
919.20 0.1431161
919.30 0.1430615
919.40 0.1430068
919.50 0.1429522
919.60 0.1428976
919.70 0.142843
919.80 0.1427884
919.90 0.1427349
920.00 0.1426815
920.10 0.1426281
920.20 0.1425748
920.30 0.1425214
920.40 0.1424681
920.50 0.1424148
920.60 0.1423615
920.70 0.1423082
920.80 0.1422549
920.90 0.1422017
921.00 0.1421485
921.10 0.1420953
921.20 0.1420421
921.30 0.141989
921.40 0.1419359
921.50 0.1418827
921.60 0.1418296
921.70 0.1417766
921.80 0.1417235
921.90 0.1416705
922.00 0.1416175
922.10 0.1415645
922.20 0.1415115
922.30 0.1414585
922.40 0.1414056
922.50 0.1413527
922.60 0.1412998
922.70 0.1412469
922.80 0.1411941
922.90 0.1411412
923.00 0.1410884
923.10 0.1410356
923.20 0.1409828
923.30 0.1409301
923.40 0.1408773
923.50 0.1408246
923.60 0.1407719
923.70 0.1407192
923.80 0.1406666
923.90 0.1406139
924.00 0.1405613
924.10 0.1405087
924.20 0.1404561
924.30 0.1404035
924.40 0.1403509
924.50 0.1402981
924.60 0.1402452
924.70 0.1401924
924.80 0.1401396
924.90 0.1400869
925.00 0.1400341
925.10 0.1399814
925.20 0.1399286
925.30 0.1398759
925.40 0.1398233
925.50 0.1397706
925.60 0.139718
925.70 0.1396654
925.80 0.1396128
925.90 0.1395602
926.00 0.1395076
926.10 0.1394551
926.20 0.1394025
926.30 0.13935
926.40 0.1392976
926.50 0.1392451
926.60 0.1391927
926.70 0.1391402
926.80 0.1390878
926.90 0.1390354
927.00 0.1389831
927.10 0.1389307
927.20 0.1388784
927.30 0.1388261
927.40 0.1387738
927.50 0.1387215
927.60 0.1386693
927.70 0.138617
927.80 0.1385648
927.90 0.1385126
928.00 0.1384605
928.10 0.1384083
928.20 0.1383562
928.30 0.1383041
928.40 0.138252
928.50 0.1381999
928.60 0.1381478
928.70 0.1380958
928.80 0.1380438
928.90 0.1379918
929.00 0.1379398
929.10 0.1378883
929.20 0.1378369
929.30 0.1377856
929.40 0.1377342
929.50 0.1376828
929.60 0.1376315
929.70 0.1375802
929.80 0.1375289
929.90 0.1374777
930.00 0.1374264
930.10 0.1373752
930.20 0.137324
930.30 0.1372728
930.40 0.1372216
930.50 0.1371704
930.60 0.1371193
930.70 0.1370682
930.80 0.1370171
930.90 0.136966
931.00 0.136915
931.10 0.1368639
931.20 0.1368129
931.30 0.1367619
931.40 0.1367109
931.50 0.1366599
931.60 0.136609
931.70 0.1365581
931.80 0.1365071
931.90 0.1364563
932.00 0.1364054
932.10 0.1363545
932.20 0.1363037
932.30 0.1362529
932.40 0.1362021
932.50 0.1361513
932.60 0.1361005
932.70 0.1360498
932.80 0.1359991
932.90 0.1359484
933.00 0.1358977
933.10 0.135847
933.20 0.1357964
933.30 0.1357457
933.40 0.1356951
933.50 0.1356445
933.60 0.1355939
933.70 0.1355435
933.80 0.1354932
933.90 0.1354429
934.00 0.1353926
934.10 0.1353423
934.20 0.1352921
934.30 0.1352419
934.40 0.1351916
934.50 0.1351414
934.60 0.1350913
934.70 0.1350411
934.80 0.134991
934.90 0.1349408
935.00 0.1348907
935.10 0.1348406
935.20 0.1347906
935.30 0.1347405
935.40 0.1346905
935.50 0.1346405
935.60 0.1345905
935.70 0.1345405
935.80 0.1344905
935.90 0.1344406
936.00 0.1343907
936.10 0.1343408
936.20 0.1342909
936.30 0.134241
936.40 0.1341912
936.50 0.1341413
936.60 0.1340915
936.70 0.1340417
936.80 0.133992
936.90 0.1339422
937.00 0.1338925
937.10 0.1338427
937.20 0.133793
937.30 0.1337433
937.40 0.1336937
937.50 0.133644
937.60 0.1335944
937.70 0.1335448
937.80 0.1334952
937.90 0.1334456
938.00 0.133396
938.10 0.1333465
938.20 0.133297
938.30 0.1332475
938.40 0.133198
938.50 0.1331485
938.60 0.1330991
938.70 0.1330496
938.80 0.1330002
938.90 0.1329508
939.00 0.1329015
939.10 0.1328521
939.20 0.1328028
939.30 0.1327534
939.40 0.1327041
939.50 0.1326548
939.60 0.1326056
939.70 0.1325563
939.80 0.1325071
939.90 0.1324579
940.00 0.1324087
940.10 0.1323595
940.20 0.1323103
940.30 0.1322612
940.40 0.132212
940.50 0.1321629
940.60 0.1321138
940.70 0.1320648
940.80 0.1320157
940.90 0.1319667
941.00 0.1319177
941.10 0.1318687
941.20 0.1318197
941.30 0.1317707
941.40 0.1317218
941.50 0.1316728
941.60 0.1316239
941.70 0.131575
941.80 0.1315261
941.90 0.1314773
942.00 0.1314284
942.10 0.1313796
942.20 0.1313308
942.30 0.131282
942.40 0.1312333
942.50 0.1311845
942.60 0.1311358
942.70 0.1310871
942.80 0.1310384
942.90 0.1309897
943.00 0.1309412
943.10 0.130893
943.20 0.1308448
943.30 0.1307967
943.40 0.1307486
943.50 0.1307005
943.60 0.1306524
943.70 0.1306043
943.80 0.1305562
943.90 0.1305082
944.00 0.1304602
944.10 0.1304122
944.20 0.1303642
944.30 0.1303162
944.40 0.1302683
944.50 0.1302203
944.60 0.1301724
944.70 0.1301245
944.80 0.1300766
944.90 0.1300287
945.00 0.1299809
945.10 0.1299331
945.20 0.1298853
945.30 0.1298375
945.40 0.1297897
945.50 0.1297419
945.60 0.1296942
945.70 0.1296464
945.80 0.1295987
945.90 0.129551
946.00 0.1295034
946.10 0.1294557
946.20 0.1294081
946.30 0.1293604
946.40 0.1293128
946.50 0.1292652
946.60 0.1292177
946.70 0.1291701
946.80 0.1291226
946.90 0.1290751
947.00 0.1290276
947.10 0.1289801
947.20 0.1289326
947.30 0.1288851
947.40 0.1288377
947.50 0.1287903
947.60 0.1287429
947.70 0.1286955
947.80 0.1286481
947.90 0.1286008
948.00 0.1285535
948.10 0.1285061
948.20 0.1284588
948.30 0.1284116
948.40 0.1283643
948.50 0.1283171
948.60 0.1282698
948.70 0.1282226
948.80 0.1281754
948.90 0.1281282
949.00 0.1280811
949.10 0.1280339
949.20 0.1279868
949.30 0.1279397
949.40 0.1278926
949.50 0.1278455
949.60 0.1277985
949.70 0.1277514
949.80 0.1277044
949.90 0.1276574
950.00 0.1276104
950.10 0.1275634
950.20 0.1275165
950.30 0.1274695
950.40 0.1274226
950.50 0.1273757
950.60 0.1273288
950.70 0.1272819
950.80 0.1272351
950.90 0.1271882
951.00 0.1271414
951.10 0.1270946
951.20 0.1270478
951.30 0.1270011
951.40 0.1269543
951.50 0.1269076
951.60 0.1268608
951.70 0.1268141
951.80 0.1267674
951.90 0.1267208
952.00 0.1266741
952.10 0.1266275
952.20 0.1265809
952.30 0.1265343
952.40 0.1264877
952.50 0.126441
952.60 0.1263944
952.70 0.1263479
952.80 0.1263013
952.90 0.1262547
953.00 0.1262082
953.10 0.1261617
953.20 0.1261152
953.30 0.1260687
953.40 0.1260222
953.50 0.1259757
953.60 0.1259293
953.70 0.1258829
953.80 0.1258365
953.90 0.1257901
954.00 0.1257437
954.10 0.1256974
954.20 0.125651
954.30 0.1256047
954.40 0.1255584
954.50 0.1255121
954.60 0.1254658
954.70 0.1254196
954.80 0.1253733
954.90 0.1253271
955.00 0.1252809
955.10 0.1252347
955.20 0.1251885
955.30 0.1251424
955.40 0.1250962
955.50 0.1250501
955.60 0.125004
955.70 0.1249579
955.80 0.1249119
955.90 0.1248658
956.00 0.1248198
956.10 0.1247737
956.20 0.1247277
956.30 0.1246817
956.40 0.1246358
956.50 0.1245898
956.60 0.1245439
956.70 0.1244979
956.80 0.124452
956.90 0.1244061
957.00 0.1243603
957.10 0.1243144
957.20 0.1242688
957.30 0.1242235
957.40 0.1241782
957.50 0.1241329
957.60 0.1240876
957.70 0.1240423
957.80 0.1239971
957.90 0.1239518
958.00 0.1239066
958.10 0.1238614
958.20 0.1238162
958.30 0.1237711
958.40 0.1237259
958.50 0.1236808
958.60 0.1236357
958.70 0.1235906
958.80 0.1235455
958.90 0.1235004
959.00 0.1234553
959.10 0.1234103
959.20 0.1233653
959.30 0.1233203
959.40 0.1232753
959.50 0.1232303
959.60 0.1231854
959.70 0.1231404
959.80 0.1230955
959.90 0.1230506
960.00 0.1230057
960.10 0.1229608
960.20 0.122916
960.30 0.1228711
960.40 0.1228263
960.50 0.1227815
960.60 0.1227367
960.70 0.1226919
960.80 0.1226471
960.90 0.1226024
961.00 0.1225576
961.10 0.1225129
961.20 0.1224682
961.30 0.1224235
961.40 0.1223789
961.50 0.1223342
961.60 0.1222896
961.70 0.1222449
961.80 0.1222003
961.90 0.1221558
962.00 0.1221115
962.10 0.1220674
962.20 0.1220233
962.30 0.1219792
962.40 0.1219351
962.50 0.1218911
962.60 0.121847
962.70 0.121803
962.80 0.121759
962.90 0.121715
963.00 0.121671
963.10 0.121627
963.20 0.1215831
963.30 0.1215391
963.40 0.1214952
963.50 0.1214513
963.60 0.1214074
963.70 0.1213635
963.80 0.1213197
963.90 0.1212758
964.00 0.121232
964.10 0.1211882
964.20 0.1211444
964.30 0.1211006
964.40 0.1210568
964.50 0.1210131
964.60 0.1209694
964.70 0.1209256
964.80 0.1208819
964.90 0.1208382
965.00 0.1207946
965.10 0.1207509
965.20 0.1207073
965.30 0.1206636
965.40 0.12062
965.50 0.1205764
965.60 0.1205329
965.70 0.1204893
965.80 0.1204457
965.90 0.1204022
966.00 0.1203587
966.10 0.1203152
966.20 0.1202717
966.30 0.1202282
966.40 0.1201848
966.50 0.1201413
966.60 0.1200979
966.70 0.1200545
966.80 0.1200111
966.90 0.1199677
967.00 0.1199244
967.10 0.119881
967.20 0.1198377
967.30 0.1197944
967.40 0.1197511
967.50 0.1197078
967.60 0.1196645
967.70 0.1196212
967.80 0.119578
967.90 0.1195348
968.00 0.1194916
968.10 0.1194484
968.20 0.1194052
968.30 0.119362
968.40 0.1193189
968.50 0.1192757
968.60 0.1192326
968.70 0.1191895
968.80 0.1191464
968.90 0.1191034
969.00 0.1190603
969.10 0.1190173
969.20 0.1189742
969.30 0.1189312
969.40 0.1188882
969.50 0.1188452
969.60 0.1188023
969.70 0.1187593
969.80 0.1187164
969.90 0.1186735
970.00 0.1186306
970.10 0.1185877
970.20 0.1185448
970.30 0.1185019
970.40 0.1184591
970.50 0.1184163
970.60 0.1183734
970.70 0.1183306
970.80 0.1182879
970.90 0.1182451
971.00 0.1182023
971.10 0.1181596
971.20 0.1181169
971.30 0.1180742
971.40 0.1180315
971.50 0.1179888
971.60 0.1179462
971.70 0.1179038
971.80 0.1178613
971.90 0.1178189
972.00 0.1177765
972.10 0.117734
972.20 0.1176917
972.30 0.1176493
972.40 0.1176069
972.50 0.1175646
972.60 0.1175222
972.70 0.1174799
972.80 0.1174376
972.90 0.1173953
973.00 0.117353
973.10 0.1173108
973.20 0.1172685
973.30 0.1172263
973.40 0.1171841
973.50 0.1171419
973.60 0.1170997
973.70 0.1170576
973.80 0.1170154
973.90 0.1169733
974.00 0.1169311
974.10 0.116889
974.20 0.1168469
974.30 0.1168049
974.40 0.1167628
974.50 0.1167207
974.60 0.1166787
974.70 0.1166367
974.80 0.1165947
974.90 0.1165527
975.00 0.1165107
975.10 0.1164687
975.20 0.1164268
975.30 0.1163849
975.40 0.1163429
975.50 0.116301
975.60 0.1162592
975.70 0.1162173
975.80 0.1161754
975.90 0.1161336
976.00 0.1160917
976.10 0.1160499
976.20 0.1160081
976.30 0.1159664
976.40 0.1159246
976.50 0.1158828
976.60 0.1158411
976.70 0.1157994
976.80 0.1157576
976.90 0.1157159
977.00 0.1156743
977.10 0.1156326
977.20 0.1155909
977.30 0.1155493
977.40 0.1155077
977.50 0.1154661
977.60 0.1154245
977.70 0.1153829
977.80 0.1153413
977.90 0.1152998
978.00 0.1152582
978.10 0.1152167
978.20 0.1151752
978.30 0.1151337
978.40 0.1150922
978.50 0.1150508
978.60 0.1150093
978.70 0.1149679
978.80 0.1149265
978.90 0.1148851
979.00 0.1148437
979.10 0.1148023
979.20 0.1147609
979.30 0.1147196
979.40 0.1146783
979.50 0.1146369
979.60 0.1145956
979.70 0.1145544
979.80 0.1145131
979.90 0.1144718
980.00 0.1144306
980.10 0.1143893
980.20 0.1143481
980.30 0.1143069
980.40 0.1142657
980.50 0.1142246
980.60 0.1141834
980.70 0.1141423
980.80 0.1141011
980.90 0.11406
981.00 0.1140189
981.10 0.1139778
981.20 0.1139367
981.30 0.1138958
981.40 0.1138549
981.50 0.1138141
981.60 0.1137732
981.70 0.1137324
981.80 0.1136916
981.90 0.1136508
982.00 0.11361
982.10 0.1135692
982.20 0.1135285
982.30 0.1134878
982.40 0.113447
982.50 0.1134063
982.60 0.1133656
982.70 0.1133249
982.80 0.1132843
982.90 0.1132436
983.00 0.113203
983.10 0.1131624
983.20 0.1131218
983.30 0.1130812
983.40 0.1130406
983.50 0.113
983.60 0.1129595
983.70 0.1129189
983.80 0.1128784
983.90 0.1128379
984.00 0.1127974
984.10 0.1127569
984.20 0.1127164
984.30 0.112676
984.40 0.1126355
984.50 0.1125951
984.60 0.1125547
984.70 0.1125143
984.80 0.1124739
984.90 0.1124335
985.00 0.1123932
985.10 0.1123529
985.20 0.1123125
985.30 0.1122722
985.40 0.1122319
985.50 0.1121916
985.60 0.1121514
985.70 0.1121111
985.80 0.1120709
985.90 0.1120306
986.00 0.1119904
986.10 0.1119502
986.20 0.11191
986.30 0.1118698
986.40 0.1118297
986.50 0.1117895
986.60 0.1117494
986.70 0.1117093
986.80 0.1116692
986.90 0.1116291
987.00 0.111589
987.10 0.111549
987.20 0.1115089
987.30 0.1114689
987.40 0.1114289
987.50 0.1113889
987.60 0.1113489
987.70 0.1113089
987.80 0.1112689
987.90 0.111229
988.00 0.111189
988.10 0.1111491
988.20 0.1111092
988.30 0.1110693
988.40 0.1110294
988.50 0.1109896
988.60 0.1109497
988.70 0.1109099
988.80 0.11087
988.90 0.1108302
989.00 0.1107904
989.10 0.1107507
989.20 0.1107109
989.30 0.1106711
989.40 0.1106314
989.50 0.1105917
989.60 0.1105519
989.70 0.1105122
989.80 0.1104726
989.90 0.1104329
990.00 0.1103932
990.10 0.1103536
990.20 0.1103139
990.30 0.1102743
990.40 0.1102347
990.50 0.1101951
990.60 0.1101556
990.70 0.110116
990.80 0.1100764
990.90 0.1100369
991.00 0.1099974
991.10 0.1099582
991.20 0.1099195
991.30 0.1098809
991.40 0.1098422
991.50 0.1098036
991.60 0.109765
991.70 0.1097264
991.80 0.1096879
991.90 0.1096493
992.00 0.1096107
992.10 0.1095722
992.20 0.1095337
992.30 0.1094952
992.40 0.1094567
992.50 0.1094182
992.60 0.1093797
992.70 0.1093413
992.80 0.1093028
992.90 0.1092644
993.00 0.109226
993.10 0.1091876
993.20 0.1091492
993.30 0.1091108
993.40 0.1090724
993.50 0.1090341
993.60 0.1089957
993.70 0.1089574
993.80 0.1089191
993.90 0.1088808
994.00 0.1088425
994.10 0.1088042
994.20 0.108766
994.30 0.1087277
994.40 0.1086895
994.50 0.1086513
994.60 0.1086131
994.70 0.1085749
994.80 0.1085367
994.90 0.1084985
995.00 0.1084604
995.10 0.1084222
995.20 0.1083841
995.30 0.108346
995.40 0.1083079
995.50 0.1082698
995.60 0.1082317
995.70 0.1081937
995.80 0.1081556
995.90 0.1081176
996.00 0.1080796
996.10 0.1080412
996.20 0.1080028
996.30 0.1079643
996.40 0.1079259
996.50 0.1078875
996.60 0.1078492
996.70 0.1078108
996.80 0.1077724
996.90 0.1077341
997.00 0.1076958
997.10 0.1076574
997.20 0.1076191
997.30 0.1075809
997.40 0.1075426
997.50 0.1075043
997.60 0.1074661
997.70 0.1074278
997.80 0.1073896
997.90 0.1073514
998.00 0.1073132
998.10 0.107275
998.20 0.1072369
998.30 0.1071987
998.40 0.1071606
998.50 0.1071224
998.60 0.1070843
998.70 0.1070462
998.80 0.1070081
998.90 0.10697
999.00 0.106932
999.10 0.1068939
999.20 0.1068559
999.30 0.1068179
999.40 0.1067798
999.50 0.1067418
999.60 0.1067039
999.70 0.1066659
999.80 0.1066279
999.90 0.10659
1000.00 0.106552
1000.10 0.1065141
1000.20 0.1064762
1000.30 0.1064383
1000.40 0.1064004
1000.50 0.1063626
1000.60 0.1063247
1000.70 0.1062869
1000.80 0.106249
1000.90 0.1062112
1001.00 0.1061735
1001.10 0.1061358
1001.20 0.1060982
1001.30 0.1060606
1001.40 0.106023
1001.50 0.1059854
1001.60 0.1059479
1001.70 0.1059103
1001.80 0.1058728
1001.90 0.1058353
1002.00 0.1057977
1002.10 0.1057602
1002.20 0.1057228
1002.30 0.1056853
1002.40 0.1056478
1002.50 0.1056104
1002.60 0.1055729
1002.70 0.1055355
1002.80 0.1054981
1002.90 0.1054607
1003.00 0.1054233
1003.10 0.105386
1003.20 0.1053486
1003.30 0.1053113
1003.40 0.1052739
1003.50 0.1052366
1003.60 0.1051993
1003.70 0.105162
1003.80 0.1051247
1003.90 0.1050874
1004.00 0.1050502
1004.10 0.1050129
1004.20 0.1049757
1004.30 0.1049385
1004.40 0.1049013
1004.50 0.1048641
1004.60 0.1048269
1004.70 0.1047897
1004.80 0.1047526
1004.90 0.1047155
1005.00 0.1046783
1005.10 0.1046412
1005.20 0.1046041
1005.30 0.104567
1005.40 0.1045299
1005.50 0.1044929
1005.60 0.1044558
1005.70 0.1044188
1005.80 0.1043817
1005.90 0.1043447
1006.00 0.1043078
1006.10 0.1042713
1006.20 0.1042347
1006.30 0.1041982
1006.40 0.1041616
1006.50 0.1041251
1006.60 0.1040886
1006.70 0.1040521
1006.80 0.1040156
1006.90 0.1039792
1007.00 0.1039427
1007.10 0.1039063
1007.20 0.1038699
1007.30 0.1038334
1007.40 0.103797
1007.50 0.1037606
1007.60 0.1037243
1007.70 0.1036879
1007.80 0.1036516
1007.90 0.1036152
1008.00 0.1035789
1008.10 0.1035426
1008.20 0.1035063
1008.30 0.10347
1008.40 0.1034337
1008.50 0.1033974
1008.60 0.1033612
1008.70 0.1033249
1008.80 0.1032887
1008.90 0.1032525
1009.00 0.1032163
1009.10 0.1031801
1009.20 0.1031439
1009.30 0.1031077
1009.40 0.1030716
1009.50 0.1030354
1009.60 0.1029993
1009.70 0.1029632
1009.80 0.1029271
1009.90 0.102891
1010.00 0.1028549
1010.10 0.1028188
1010.20 0.1027828
1010.30 0.1027467
1010.40 0.1027107
1010.50 0.1026747
1010.60 0.1026387
1010.70 0.1026027
1010.80 0.1025667
1010.90 0.1025307
1011.00 0.1024948
1011.10 0.102459
1011.20 0.1024232
1011.30 0.1023874
1011.40 0.1023517
1011.50 0.1023159
1011.60 0.1022802
1011.70 0.1022445
1011.80 0.1022088
1011.90 0.1021731
1012.00 0.1021374
1012.10 0.1021017
1012.20 0.1020661
1012.30 0.1020304
1012.40 0.1019948
1012.50 0.1019592
1012.60 0.1019236
1012.70 0.101888
1012.80 0.1018524
1012.90 0.1018168
1013.00 0.1017813
1013.10 0.1017457
1013.20 0.1017102
1013.30 0.1016747
1013.40 0.1016392
1013.50 0.1016037
1013.60 0.1015682
1013.70 0.1015327
1013.80 0.1014972
1013.90 0.1014618
1014.00 0.1014263
1014.10 0.1013909
1014.20 0.1013555
1014.30 0.1013201
1014.40 0.1012847
1014.50 0.1012493
1014.60 0.101214
1014.70 0.1011786
1014.80 0.1011433
1014.90 0.1011079
1015.00 0.1010726
1015.10 0.1010373
1015.20 0.101002
1015.30 0.1009667
1015.40 0.1009315
1015.50 0.1008962
1015.60 0.1008609
1015.70 0.1008257
1015.80 0.1007905
1015.90 0.1007553
1016.00 0.1007201
1016.10 0.1006849
1016.20 0.1006497
1016.30 0.1006145
1016.40 0.1005794
1016.50 0.1005442
1016.60 0.1005091
1016.70 0.100474
1016.80 0.1004389
1016.90 0.1004038
1017.00 0.1003687
1017.10 0.1003337
1017.20 0.1002986
1017.30 0.1002635
1017.40 0.1002285
1017.50 0.1001935
1017.60 0.1001585
1017.70 0.1001235
1017.80 0.1000885
1017.90 0.1000535
1018.00 0.1000186
1018.10 0.09998361
1018.20 0.09994867
1018.30 0.09991374
1018.40 0.09987883
1018.50 0.09984392
1018.60 0.09980903
1018.70 0.09977415
1018.80 0.09973928
1018.90 0.09970442
1019.00 0.09966958
1019.10 0.09963475
1019.20 0.09959992
1019.30 0.09956511
1019.40 0.09953032
1019.50 0.09949553
1019.60 0.09946075
1019.70 0.09942599
1019.80 0.09939124
1019.90 0.0993565
1020.00 0.09932177
1020.10 0.09928706
1020.20 0.09925235
1020.30 0.09921766
1020.40 0.09918298
1020.50 0.09914831
1020.60 0.09911365
1020.70 0.099079
1020.80 0.09904437
1020.90 0.09900975
1021.00 0.09897514
1021.10 0.09894058
1021.20 0.09890655
1021.30 0.09887253
1021.40 0.09883852
1021.50 0.09880453
1021.60 0.09877055
1021.70 0.09873658
1021.80 0.09870261
1021.90 0.09866867
1022.00 0.09863473
1022.10 0.0986008
1022.20 0.09856689
1022.30 0.09853298
1022.40 0.09849909
1022.50 0.09846521
1022.60 0.09843134
1022.70 0.09839749
1022.80 0.09836364
1022.90 0.0983298
1023.00 0.09829598
1023.10 0.09826217
1023.20 0.09822837
1023.30 0.09819458
1023.40 0.0981608
1023.50 0.09812703
1023.60 0.09809328
1023.70 0.09805953
1023.80 0.0980258
1023.90 0.09799208
1024.00 0.09795837
1024.10 0.09792467
1024.20 0.09789098
1024.30 0.0978573
1024.40 0.09782364
1024.50 0.09778998
1024.60 0.09775634
1024.70 0.09772271
1024.80 0.09768909
1024.90 0.09765548
1025.00 0.09762188
1025.10 0.09758829
1025.20 0.09755472
1025.30 0.09752116
1025.40 0.0974876
1025.50 0.09745406
1025.60 0.09742053
1025.70 0.09738701
1025.80 0.0973535
1025.90 0.09732001
1026.00 0.09728652
1026.10 0.09725305
1026.20 0.09721958
1026.30 0.09718572
1026.40 0.09715188
1026.50 0.09711804
1026.60 0.09708422
1026.70 0.0970504
1026.80 0.0970166
1026.90 0.09698281
1027.00 0.09694904
1027.10 0.09691527
1027.20 0.09688151
1027.30 0.09684777
1027.40 0.09681404
1027.50 0.09678031
1027.60 0.0967466
1027.70 0.0967129
1027.80 0.09667922
1027.90 0.09664554
1028.00 0.09661187
1028.10 0.09657822
1028.20 0.09654458
1028.30 0.09651094
1028.40 0.09647732
1028.50 0.09644371
1028.60 0.09641012
1028.70 0.09637653
1028.80 0.09634295
1028.90 0.09630939
1029.00 0.09627584
1029.10 0.0962423
1029.20 0.09620877
1029.30 0.09617525
1029.40 0.09614174
1029.50 0.09610824
1029.60 0.09607475
1029.70 0.09604128
1029.80 0.09600782
1029.90 0.09597436
1030.00 0.09594092
1030.10 0.09590749
1030.20 0.09587408
1030.30 0.09584067
1030.40 0.09580727
1030.50 0.09577389
1030.60 0.09574051
1030.70 0.09570715
1030.80 0.0956738
1030.90 0.09564046
1031.00 0.09560713
1031.10 0.09557381
1031.20 0.0955405
1031.30 0.09550721
1031.40 0.09547444
1031.50 0.09544171
1031.60 0.09540899
1031.70 0.09537629
1031.80 0.09534359
1031.90 0.0953109
1032.00 0.09527823
1032.10 0.09524556
1032.20 0.09521291
1032.30 0.09518027
1032.40 0.09514763
1032.50 0.09511501
1032.60 0.0950824
1032.70 0.0950498
1032.80 0.09501721
1032.90 0.09498463
1033.00 0.09495207
1033.10 0.09491951
1033.20 0.09488697
1033.30 0.09485443
1033.40 0.09482191
1033.50 0.09478939
1033.60 0.09475689
1033.70 0.0947244
1033.80 0.09469192
1033.90 0.09465945
1034.00 0.09462699
1034.10 0.09459454
1034.20 0.09456211
1034.30 0.09452968
1034.40 0.09449726
1034.50 0.09446486
1034.60 0.09443246
1034.70 0.09440008
1034.80 0.09436771
1034.90 0.09433535
1035.00 0.09430299
1035.10 0.09427065
1035.20 0.09423832
1035.30 0.094206
1035.40 0.0941737
1035.50 0.0941414
1035.60 0.09410911
1035.70 0.09407683
1035.80 0.09404457
1035.90 0.09401231
1036.00 0.09398007
1036.10 0.09394784
1036.20 0.09391561
1036.30 0.0938834
1036.40 0.0938512
1036.50 0.09381901
1036.60 0.09378683
1036.70 0.09375465
1036.80 0.09372249
1036.90 0.09369034
1037.00 0.0936582
1037.10 0.09362607
1037.20 0.09359395
1037.30 0.09356184
1037.40 0.09352975
1037.50 0.09349766
1037.60 0.09346558
1037.70 0.09343352
1037.80 0.09340146
1037.90 0.09336942
1038.00 0.09333738
1038.10 0.09330536
1038.20 0.09327335
1038.30 0.09324135
1038.40 0.09320936
1038.50 0.09317737
1038.60 0.0931454
1038.70 0.09311345
1038.80 0.0930815
1038.90 0.09304956
1039.00 0.09301763
1039.10 0.09298571
1039.20 0.09295381
1039.30 0.09292191
1039.40 0.09289002
1039.50 0.09285815
1039.60 0.09282628
1039.70 0.09279443
1039.80 0.09276259
1039.90 0.09273075
1040.00 0.09269893
1040.10 0.09266712
1040.20 0.09263532
1040.30 0.09260353
1040.40 0.09257175
1040.50 0.09253998
1040.60 0.09250822
1040.70 0.09247647
1040.80 0.09244473
1040.90 0.092413
1041.00 0.09238129
1041.10 0.09234958
1041.20 0.09231788
1041.30 0.0922862
1041.40 0.09225452
1041.50 0.09222286
1041.60 0.0921912
1041.70 0.09215967
1041.80 0.09212818
1041.90 0.09209669
1042.00 0.09206522
1042.10 0.09203376
1042.20 0.0920023
1042.30 0.09197086
1042.40 0.09193943
1042.50 0.09190801
1042.60 0.0918766
1042.70 0.09184519
1042.80 0.0918138
1042.90 0.09178242
1043.00 0.09175105
1043.10 0.09171969
1043.20 0.09168834
1043.30 0.09165701
1043.40 0.09162568
1043.50 0.09159436
1043.60 0.09156305
1043.70 0.09153175
1043.80 0.09150047
1043.90 0.09146919
1044.00 0.09143792
1044.10 0.09140666
1044.20 0.09137542
1044.30 0.09134418
1044.40 0.09131296
1044.50 0.09128174
1044.60 0.09125054
1044.70 0.09121934
1044.80 0.09118816
1044.90 0.09115698
1045.00 0.09112582
1045.10 0.09109467
1045.20 0.09106352
1045.30 0.09103239
1045.40 0.09100127
1045.50 0.09097015
1045.60 0.09093905
1045.70 0.09090796
1045.80 0.09087688
1045.90 0.0908458
1046.00 0.09081474
1046.10 0.09078369
1046.20 0.09075265
1046.30 0.09072162
1046.40 0.0906906
1046.50 0.09065959
1046.60 0.09062859
1046.70 0.0905976
1046.80 0.09056662
1046.90 0.09053565
1047.00 0.09050469
1047.10 0.09047374
1047.20 0.0904428
1047.30 0.09041187
1047.40 0.09038095
1047.50 0.09035004
1047.60 0.09031914
1047.70 0.09028825
1047.80 0.09025738
1047.90 0.09022651
1048.00 0.09019565
1048.10 0.0901648
1048.20 0.09013396
1048.30 0.09010314
1048.40 0.09007232
1048.50 0.09004151
1048.60 0.09001071
1048.70 0.08997993
1048.80 0.08994915
1048.90 0.08991838
1049.00 0.08988763
1049.10 0.08985688
1049.20 0.08982614
1049.30 0.08979542
1049.40 0.0897647
1049.50 0.08973399
1049.60 0.0897033
1049.70 0.08967261
1049.80 0.08964193
1049.90 0.08961127
1050.00 0.08958061
1050.10 0.08954996
1050.20 0.08951933
1050.30 0.0894887
1050.40 0.08945809
1050.50 0.08942748
1050.60 0.08939688
1050.70 0.0893663
1050.80 0.08933572
1050.90 0.08930516
1051.00 0.0892746
1051.10 0.08924406
1051.20 0.08921352
1051.30 0.08918299
1051.40 0.08915248
1051.50 0.08912197
1051.60 0.08909148
1051.70 0.08906099
1051.80 0.08903051
1051.90 0.08900005
1052.00 0.08896959
1052.10 0.08893936
1052.20 0.08890925
1052.30 0.08887914
1052.40 0.08884905
1052.50 0.08881896
1052.60 0.08878889
1052.70 0.08875882
1052.80 0.08872876
1052.90 0.08869872
1053.00 0.08866868
1053.10 0.08863865
1053.20 0.08860864
1053.30 0.08857863
1053.40 0.08854863
1053.50 0.08851865
1053.60 0.08848867
1053.70 0.0884587
1053.80 0.08842874
1053.90 0.0883988
1054.00 0.08836886
1054.10 0.08833893
1054.20 0.08830901
1054.30 0.0882791
1054.40 0.0882492
1054.50 0.08821931
1054.60 0.08818943
1054.70 0.08815956
1054.80 0.0881297
1054.90 0.08809985
1055.00 0.08807001
1055.10 0.08804018
1055.20 0.08801036
1055.30 0.08798055
1055.40 0.08795074
1055.50 0.08792095
1055.60 0.08789117
1055.70 0.0878614
1055.80 0.08783163
1055.90 0.08780188
1056.00 0.08777214
1056.10 0.0877424
1056.20 0.08771268
1056.30 0.08768296
1056.40 0.08765326
1056.50 0.08762356
1056.60 0.08759388
1056.70 0.0875642
1056.80 0.08753453
1056.90 0.08750488
1057.00 0.08747523
1057.10 0.08744559
1057.20 0.08741596
1057.30 0.08738635
1057.40 0.08735674
1057.50 0.08732714
1057.60 0.08729755
1057.70 0.08726797
1057.80 0.0872384
1057.90 0.08720884
1058.00 0.08717929
1058.10 0.08714975
1058.20 0.08712022
1058.30 0.0870907
1058.40 0.08706118
1058.50 0.08703168
1058.60 0.08700219
1058.70 0.0869727
1058.80 0.08694323
1058.90 0.08691377
1059.00 0.08688431
1059.10 0.08685487
1059.20 0.08682543
1059.30 0.086796
1059.40 0.08676659
1059.50 0.08673718
1059.60 0.08670778
1059.70 0.0866784
1059.80 0.08664902
1059.90 0.08661965
1060.00 0.08659029
1060.10 0.08656094
1060.20 0.0865316
1060.30 0.08650227
1060.40 0.08647295
1060.50 0.08644364
1060.60 0.08641433
1060.70 0.08638504
1060.80 0.08635576
1060.90 0.08632649
1061.00 0.08629722
1061.10 0.08626797
1061.20 0.08623872
1061.30 0.08620949
1061.40 0.08618026
1061.50 0.08615104
1061.60 0.08612184
1061.70 0.08609264
1061.80 0.08606345
1061.90 0.08603427
1062.00 0.0860051
1062.10 0.08597594
1062.20 0.08594679
1062.30 0.08591765
1062.40 0.08588852
1062.50 0.0858594
1062.60 0.08583043
1062.70 0.08580163
1062.80 0.08577285
1062.90 0.08574407
1063.00 0.08571531
1063.10 0.08568655
1063.20 0.0856578
1063.30 0.08562906
1063.40 0.08560033
1063.50 0.08557161
1063.60 0.0855429
1063.70 0.0855142
1063.80 0.08548551
1063.90 0.08545683
1064.00 0.08542815
1064.10 0.08539949
1064.20 0.08537083
1064.30 0.08534219
1064.40 0.08531355
1064.50 0.08528492
1064.60 0.0852563
1064.70 0.0852277
1064.80 0.0851991
1064.90 0.08517051
1065.00 0.08514192
1065.10 0.08511335
1065.20 0.08508479
1065.30 0.08505624
1065.40 0.08502769
1065.50 0.08499916
1065.60 0.08497063
1065.70 0.08494211
1065.80 0.08491361
1065.90 0.08488511
1066.00 0.08485662
1066.10 0.08482814
1066.20 0.08479967
1066.30 0.08477121
1066.40 0.08474276
1066.50 0.08471431
1066.60 0.08468588
1066.70 0.08465745
1066.80 0.08462904
1066.90 0.08460063
1067.00 0.08457224
1067.10 0.08454385
1067.20 0.08451547
1067.30 0.0844871
1067.40 0.08445874
1067.50 0.08443039
1067.60 0.08440204
1067.70 0.08437371
1067.80 0.08434539
1067.90 0.08431707
1068.00 0.08428876
1068.10 0.08426046
1068.20 0.08423217
1068.30 0.08420389
1068.40 0.08417562
1068.50 0.08414736
1068.60 0.08411911
1068.70 0.08409086
1068.80 0.08406263
1068.90 0.0840344
1069.00 0.08400618
1069.10 0.08397797
1069.20 0.08394978
1069.30 0.08392159
1069.40 0.0838934
1069.50 0.08386523
1069.60 0.08383707
1069.70 0.08380892
1069.80 0.08378077
1069.90 0.08375264
1070.00 0.08372451
1070.10 0.08369639
1070.20 0.08366829
1070.30 0.08364019
1070.40 0.0836121
1070.50 0.08358401
1070.60 0.08355594
1070.70 0.08352788
1070.80 0.08349982
1070.90 0.08347178
1071.00 0.08344374
1071.10 0.08341572
1071.20 0.0833877
1071.30 0.08335969
1071.40 0.08333169
1071.50 0.0833037
1071.60 0.08327572
1071.70 0.08324774
1071.80 0.08321978
1071.90 0.08319182
1072.00 0.08316388
1072.10 0.08313594
1072.20 0.08310801
1072.30 0.08308009
1072.40 0.08305218
1072.50 0.08302428
1072.60 0.08299639
1072.70 0.08296851
1072.80 0.08294063
1072.90 0.08291277
1073.00 0.08288491
1073.10 0.08285706
1073.20 0.08282932
1073.30 0.08280197
1073.40 0.08277463
1073.50 0.08274729
1073.60 0.08271996
1073.70 0.08269264
1073.80 0.08266533
1073.90 0.08263803
1074.00 0.08261074
1074.10 0.08258345
1074.20 0.08255618
1074.30 0.08252891
1074.40 0.08250165
1074.50 0.0824744
1074.60 0.08244716
1074.70 0.08241993
1074.80 0.0823927
1074.90 0.08236549
1075.00 0.08233828
1075.10 0.08231109
1075.20 0.0822839
1075.30 0.08225672
1075.40 0.08222955
1075.50 0.08220238
1075.60 0.08217523
1075.70 0.08214809
1075.80 0.08212095
1075.90 0.08209382
1076.00 0.0820667
1076.10 0.08203959
1076.20 0.08201249
1076.30 0.0819854
1076.40 0.08195831
1076.50 0.08193124
1076.60 0.08190417
1076.70 0.08187711
1076.80 0.08185006
1076.90 0.08182302
1077.00 0.08179599
1077.10 0.08176896
1077.20 0.08174195
1077.30 0.08171494
1077.40 0.08168794
1077.50 0.08166095
1077.60 0.08163397
1077.70 0.081607
1077.80 0.08158004
1077.90 0.08155308
1078.00 0.08152613
1078.10 0.0814992
1078.20 0.08147227
1078.30 0.08144535
1078.40 0.08141843
1078.50 0.08139153
1078.60 0.08136445
1078.70 0.08133721
1078.80 0.08130999
1078.90 0.08128277
1079.00 0.08125556
1079.10 0.08122836
1079.20 0.08120117
1079.30 0.08117399
1079.40 0.08114682
1079.50 0.08111966
1079.60 0.0810925
1079.70 0.08106535
1079.80 0.08103822
1079.90 0.08101109
1080.00 0.08098397
1080.10 0.08095685
1080.20 0.08092975
1080.30 0.08090266
1080.40 0.08087557
1080.50 0.08084849
1080.60 0.08082142
1080.70 0.08079436
1080.80 0.08076731
1080.90 0.08074027
1081.00 0.08071324
1081.10 0.08068621
1081.20 0.08065919
1081.30 0.08063218
1081.40 0.08060518
1081.50 0.08057819
1081.60 0.08055121
1081.70 0.08052424
1081.80 0.08049727
1081.90 0.08047031
1082.00 0.08044337
1082.10 0.08041643
1082.20 0.08038949
1082.30 0.08036257
1082.40 0.08033566
1082.50 0.08030875
1082.60 0.08028186
1082.70 0.08025497
1082.80 0.08022809
1082.90 0.08020122
1083.00 0.08017436
1083.10 0.0801475
1083.20 0.08012066
1083.30 0.08009382
1083.40 0.08006699
1083.50 0.08004017
1083.60 0.08001336
1083.70 0.07998656
1083.80 0.07995976
1083.90 0.07993298
1084.00 0.07990661
1084.10 0.0798803
1084.20 0.079854
1084.30 0.07982771
1084.40 0.07980142
1084.50 0.07977515
1084.60 0.07974888
1084.70 0.07972262
1084.80 0.07969637
1084.90 0.07967013
1085.00 0.0796439
1085.10 0.07961767
1085.20 0.07959146
1085.30 0.07956525
1085.40 0.07953905
1085.50 0.07951285
1085.60 0.07948667
1085.70 0.0794605
1085.80 0.07943433
1085.90 0.07940817
1086.00 0.07938202
1086.10 0.07935588
1086.20 0.07932974
1086.30 0.07930362
1086.40 0.0792775
1086.50 0.07925139
1086.60 0.07922529
1086.70 0.0791992
1086.80 0.07917311
1086.90 0.07914704
1087.00 0.07912097
1087.10 0.07909491
1087.20 0.07906886
1087.30 0.07904281
1087.40 0.07901678
1087.50 0.07899075
1087.60 0.07896473
1087.70 0.07893872
1087.80 0.07891272
1087.90 0.07888673
1088.00 0.07886074
1088.10 0.07883476
1088.20 0.07880879
1088.30 0.07878283
1088.40 0.07875688
1088.50 0.07873094
1088.60 0.078705
1088.70 0.07867907
1088.80 0.07865315
1088.90 0.07862724
1089.00 0.07860134
1089.10 0.07857544
1089.20 0.07854955
1089.30 0.07852368
1089.40 0.0784978
1089.50 0.07847194
1089.60 0.07844608
1089.70 0.07842023
1089.80 0.07839439
1089.90 0.07836856
1090.00 0.07834274
1090.10 0.07831692
1090.20 0.07829111
1090.30 0.07826532
1090.40 0.07823952
1090.50 0.07821374
1090.60 0.07818797
1090.70 0.0781622
1090.80 0.07813644
1090.90 0.07811069
1091.00 0.07808495
1091.10 0.07805921
1091.20 0.07803349
1091.30 0.07800777
1091.40 0.07798206
1091.50 0.07795636
1091.60 0.07793066
1091.70 0.07790498
1091.80 0.0778793
1091.90 0.07785363
1092.00 0.07782797
1092.10 0.07780232
1092.20 0.07777667
1092.30 0.07775103
1092.40 0.0777254
1092.50 0.07769978
1092.60 0.07767417
1092.70 0.07764857
1092.80 0.07762297
1092.90 0.07759738
1093.00 0.0775718
1093.10 0.07754623
1093.20 0.07752066
1093.30 0.07749511
1093.40 0.07746956
1093.50 0.07744402
1093.60 0.07741849
1093.70 0.07739296
1093.80 0.07736745
1093.90 0.07734194
1094.00 0.07731644
1094.10 0.07729095
1094.20 0.07726546
1094.30 0.07723998
1094.40 0.07721452
1094.50 0.07718906
1094.60 0.07716361
1094.70 0.07713816
1094.80 0.07711286
1094.90 0.07708772
1095.00 0.07706257
1095.10 0.07703744
1095.20 0.07701232
1095.30 0.0769872
1095.40 0.07696209
1095.50 0.07693699
1095.60 0.07691189
1095.70 0.07688681
1095.80 0.07686173
1095.90 0.07683666
1096.00 0.0768116
1096.10 0.07678654
1096.20 0.0767615
1096.30 0.07673646
1096.40 0.07671143
1096.50 0.07668641
1096.60 0.07666139
1096.70 0.07663638
1096.80 0.07661138
1096.90 0.07658639
1097.00 0.07656141
1097.10 0.07653643
1097.20 0.07651147
1097.30 0.07648651
1097.40 0.07646155
1097.50 0.07643661
1097.60 0.07641167
1097.70 0.07638674
1097.80 0.07636182
1097.90 0.07633691
1098.00 0.076312
1098.10 0.07628711
1098.20 0.07626222
1098.30 0.07623733
1098.40 0.07621246
1098.50 0.07618759
1098.60 0.07616274
1098.70 0.07613789
1098.80 0.07611304
1098.90 0.07608821
1099.00 0.07606338
1099.10 0.07603856
1099.20 0.07601375
1099.30 0.07598894
1099.40 0.07596415
1099.50 0.07593936
1099.60 0.07591458
1099.70 0.0758898
1099.80 0.07586504
1099.90 0.07584028
1100.00 0.07581553
1100.10 0.07579079
1100.20 0.07576606
1100.30 0.07574133
1100.40 0.07571661
1100.50 0.0756919
1100.60 0.0756672
1100.70 0.0756425
1100.80 0.07561781
1100.90 0.07559313
1101.00 0.07556846
1101.10 0.07554379
1101.20 0.07551914
1101.30 0.07549449
1101.40 0.07546985
1101.50 0.07544521
1101.60 0.07542059
1101.70 0.07539597
1101.80 0.07537136
1101.90 0.07534675
1102.00 0.07532216
1102.10 0.07529757
1102.20 0.07527299
1102.30 0.07524842
1102.40 0.07522385
1102.50 0.0751993
1102.60 0.07517475
1102.70 0.0751502
1102.80 0.07512567
1102.90 0.07510114
1103.00 0.07507662
1103.10 0.07505211
1103.20 0.07502761
1103.30 0.07500311
1103.40 0.07497863
1103.50 0.07495415
1103.60 0.07492967
1103.70 0.07490521
1103.80 0.07488075
1103.90 0.0748563
1104.00 0.07483186
1104.10 0.07480742
1104.20 0.074783
1104.30 0.07475858
1104.40 0.07473416
1104.50 0.07470976
1104.60 0.07468536
1104.70 0.07466097
1104.80 0.07463659
1104.90 0.07461222
1105.00 0.07458785
1105.10 0.07456349
1105.20 0.07453914
1105.30 0.0745148
1105.40 0.07449046
1105.50 0.07446614
1105.60 0.07444182
1105.70 0.0744175
1105.80 0.07439331
1105.90 0.07436911
1106.00 0.07434493
1106.10 0.07432075
1106.20 0.07429659
1106.30 0.07427243
1106.40 0.07424827
1106.50 0.07422413
1106.60 0.07419999
1106.70 0.07417586
1106.80 0.07415173
1106.90 0.07412762
1107.00 0.07410351
1107.10 0.07407941
1107.20 0.07405532
1107.30 0.07403123
1107.40 0.07400715
1107.50 0.07398308
1107.60 0.07395902
1107.70 0.07393496
1107.80 0.07391091
1107.90 0.07388687
1108.00 0.07386284
1108.10 0.07383881
1108.20 0.07381479
1108.30 0.07379078
1108.40 0.07376678
1108.50 0.07374278
1108.60 0.07371879
1108.70 0.07369481
1108.80 0.07367084
1108.90 0.07364687
1109.00 0.07362291
1109.10 0.07359896
1109.20 0.07357502
1109.30 0.07355108
1109.40 0.07352715
1109.50 0.07350323
1109.60 0.07347932
1109.70 0.07345541
1109.80 0.07343151
1109.90 0.07340762
1110.00 0.07338373
1110.10 0.07335986
1110.20 0.07333599
1110.30 0.07331212
1110.40 0.07328827
1110.50 0.07326442
1110.60 0.07324058
1110.70 0.07321675
1110.80 0.07319292
1110.90 0.07316911
1111.00 0.07314529
1111.10 0.07312149
1111.20 0.0730977
1111.30 0.07307391
1111.40 0.07305013
1111.50 0.07302635
1111.60 0.07300259
1111.70 0.07297883
1111.80 0.07295508
1111.90 0.07293133
1112.00 0.07290759
1112.10 0.07288386
1112.20 0.07286014
1112.30 0.07283643
1112.40 0.07281272
1112.50 0.07278902
1112.60 0.07276533
1112.70 0.07274164
1112.80 0.07271796
1112.90 0.07269429
1113.00 0.07267063
1113.10 0.07264697
1113.20 0.07262333
1113.30 0.07259968
1113.40 0.07257605
1113.50 0.07255242
1113.60 0.0725288
1113.70 0.07250519
1113.80 0.07248159
1113.90 0.07245799
1114.00 0.0724344
1114.10 0.07241082
1114.20 0.07238724
1114.30 0.07236367
1114.40 0.07234011
1114.50 0.07231656
1114.60 0.07229301
1114.70 0.07226947
1114.80 0.07224594
1114.90 0.07222242
1115.00 0.0721989
1115.10 0.07217539
1115.20 0.07215188
1115.30 0.07212839
1115.40 0.0721049
1115.50 0.07208142
1115.60 0.07205795
1115.70 0.07203448
1115.80 0.07201102
1115.90 0.07198757
1116.00 0.07196412
1116.10 0.07194069
1116.20 0.07191726
1116.30 0.07189383
1116.40 0.07187042
1116.50 0.07184701
1116.60 0.07182361
1116.70 0.07180021
1116.80 0.07177694
1116.90 0.07175382
1117.00 0.07173071
1117.10 0.07170761
1117.20 0.07168451
1117.30 0.07166142
1117.40 0.07163833
1117.50 0.07161526
1117.60 0.07159219
1117.70 0.07156913
1117.80 0.07154607
1117.90 0.07152302
1118.00 0.07149998
1118.10 0.07147695
1118.20 0.07145392
1118.30 0.0714309
1118.40 0.07140789
1118.50 0.07138488
1118.60 0.07136188
1118.70 0.07133889
1118.80 0.07131591
1118.90 0.07129293
1119.00 0.07126996
1119.10 0.071247
1119.20 0.07122404
1119.30 0.07120109
1119.40 0.07117815
1119.50 0.07115521
1119.60 0.07113229
1119.70 0.07110936
1119.80 0.07108645
1119.90 0.07106354
1120.00 0.07104064
1120.10 0.07101775
1120.20 0.07099487
1120.30 0.07097199
1120.40 0.07094912
1120.50 0.07092625
1120.60 0.07090339
1120.70 0.07088054
1120.80 0.0708577
1120.90 0.07083486
1121.00 0.07081203
1121.10 0.07078921
1121.20 0.0707664
1121.30 0.07074359
1121.40 0.07072079
1121.50 0.07069799
1121.60 0.07067521
1121.70 0.07065243
1121.80 0.07062965
1121.90 0.07060689
1122.00 0.07058413
1122.10 0.07056137
1122.20 0.07053863
1122.30 0.07051589
1122.40 0.07049316
1122.50 0.07047043
1122.60 0.07044771
1122.70 0.070425
1122.80 0.07040229
1122.90 0.0703796
1123.00 0.0703569
1123.10 0.07033422
1123.20 0.07031154
1123.30 0.07028887
1123.40 0.07026621
1123.50 0.07024355
1123.60 0.0702209
1123.70 0.07019826
1123.80 0.07017562
1123.90 0.070153
1124.00 0.07013037
1124.10 0.07010776
1124.20 0.07008515
1124.30 0.07006255
1124.40 0.07003996
1124.50 0.07001737
1124.60 0.06999479
1124.70 0.06997222
1124.80 0.06994965
1124.90 0.06992709
1125.00 0.06990454
1125.10 0.06988199
1125.20 0.06985945
1125.30 0.06983692
1125.40 0.0698144
1125.50 0.06979188
1125.60 0.06976937
1125.70 0.06974686
1125.80 0.06972437
1125.90 0.06970187
1126.00 0.06967939
1126.10 0.06965691
1126.20 0.06963444
1126.30 0.06961198
1126.40 0.06958953
1126.50 0.06956708
1126.60 0.06954463
1126.70 0.0695222
1126.80 0.06949977
1126.90 0.06947735
1127.00 0.06945493
1127.10 0.06943253
1127.20 0.06941013
1127.30 0.06938773
1127.40 0.06936534
1127.50 0.06934296
1127.60 0.06932059
1127.70 0.06929822
1127.80 0.06927586
1127.90 0.06925351
1128.00 0.06923136
1128.10 0.06920927
1128.20 0.06918719
1128.30 0.06916512
1128.40 0.06914305
1128.50 0.06912099
1128.60 0.06909894
1128.70 0.06907689
1128.80 0.06905485
1128.90 0.06903282
1129.00 0.0690108
1129.10 0.06898878
1129.20 0.06896676
1129.30 0.06894476
1129.40 0.06892276
1129.50 0.06890077
1129.60 0.06887878
1129.70 0.0688568
1129.80 0.06883483
1129.90 0.06881286
1130.00 0.0687909
1130.10 0.06876895
1130.20 0.068747
1130.30 0.06872507
1130.40 0.06870313
1130.50 0.06868121
1130.60 0.06865929
1130.70 0.06863738
1130.80 0.06861547
1130.90 0.06859357
1131.00 0.06857168
1131.10 0.06854979
1131.20 0.06852792
1131.30 0.06850604
1131.40 0.06848418
1131.50 0.06846232
1131.60 0.06844047
1131.70 0.06841862
1131.80 0.06839678
1131.90 0.06837495
1132.00 0.06835312
1132.10 0.0683313
1132.20 0.06830949
1132.30 0.06828769
1132.40 0.06826589
1132.50 0.06824409
1132.60 0.06822231
1132.70 0.06820053
1132.80 0.06817876
1132.90 0.06815699
1133.00 0.06813523
1133.10 0.06811348
1133.20 0.06809173
1133.30 0.06806999
1133.40 0.06804826
1133.50 0.06802653
1133.60 0.06800481
1133.70 0.0679831
1133.80 0.06796139
1133.90 0.06793969
1134.00 0.067918
1134.10 0.06789631
1134.20 0.06787463
1134.30 0.06785296
1134.40 0.06783129
1134.50 0.06780963
1134.60 0.06778798
1134.70 0.06776633
1134.80 0.06774469
1134.90 0.06772306
1135.00 0.06770143
1135.10 0.06767981
1135.20 0.0676582
1135.30 0.06763659
1135.40 0.06761499
1135.50 0.06759339
1135.60 0.0675718
1135.70 0.06755022
1135.80 0.06752865
1135.90 0.06750708
1136.00 0.06748552
1136.10 0.06746396
1136.20 0.06744241
1136.30 0.06742087
1136.40 0.06739933
1136.50 0.06737781
1136.60 0.06735628
1136.70 0.06733477
1136.80 0.06731326
1136.90 0.06729175
1137.00 0.06727026
1137.10 0.06724877
1137.20 0.06722728
1137.30 0.06720581
1137.40 0.06718434
1137.50 0.06716287
1137.60 0.06714142
1137.70 0.06711996
1137.80 0.06709852
1137.90 0.06707708
1138.00 0.06705565
1138.10 0.06703423
1138.20 0.06701281
1138.30 0.0669914
1138.40 0.06696999
1138.50 0.06694859
1138.60 0.0669272
1138.70 0.06690581
1138.80 0.06688443
1138.90 0.06686306
1139.00 0.06684169
1139.10 0.06682033
1139.20 0.06679898
1139.30 0.06677787
1139.40 0.06675677
1139.50 0.06673568
1139.60 0.06671459
1139.70 0.06669351
1139.80 0.06667243
1139.90 0.06665137
1140.00 0.06663031
1140.10 0.06660925
1140.20 0.0665882
1140.30 0.06656716
1140.40 0.06654612
1140.50 0.06652509
1140.60 0.06650407
1140.70 0.06648305
1140.80 0.06646204
1140.90 0.06644104
1141.00 0.06642004
1141.10 0.06639905
1141.20 0.06637806
1141.30 0.06635709
1141.40 0.06633611
1141.50 0.06631515
1141.60 0.06629419
1141.70 0.06627323
1141.80 0.06625229
1141.90 0.06623135
1142.00 0.06621041
1142.10 0.06618948
1142.20 0.06616856
1142.30 0.06614764
1142.40 0.06612674
1142.50 0.06610583
1142.60 0.06608494
1142.70 0.06606405
1142.80 0.06604316
1142.90 0.06602228
1143.00 0.06600141
1143.10 0.06598055
1143.20 0.06595969
1143.30 0.06593883
1143.40 0.06591799
1143.50 0.06589715
1143.60 0.06587631
1143.70 0.06585549
1143.80 0.06583467
1143.90 0.06581385
1144.00 0.06579304
1144.10 0.06577224
1144.20 0.06575144
1144.30 0.06573065
1144.40 0.06570987
1144.50 0.06568909
1144.60 0.06566832
1144.70 0.06564756
1144.80 0.0656268
1144.90 0.06560605
1145.00 0.0655853
1145.10 0.06556456
1145.20 0.06554383
1145.30 0.0655231
1145.40 0.06550238
1145.50 0.06548166
1145.60 0.06546095
1145.70 0.06544025
1145.80 0.06541956
1145.90 0.06539887
1146.00 0.06537818
1146.10 0.0653575
1146.20 0.06533683
1146.30 0.06531617
1146.40 0.06529551
1146.50 0.06527486
1146.60 0.06525421
1146.70 0.06523357
1146.80 0.06521294
1146.90 0.06519231
1147.00 0.06517169
1147.10 0.06515107
1147.20 0.06513046
1147.30 0.06510986
1147.40 0.06508926
1147.50 0.06506867
1147.60 0.06504809
1147.70 0.06502751
1147.80 0.06500694
1147.90 0.06498637
1148.00 0.06496581
1148.10 0.06494526
1148.20 0.06492471
1148.30 0.06490417
1148.40 0.06488363
1148.50 0.0648631
1148.60 0.06484258
1148.70 0.06482206
1148.80 0.06480155
1148.90 0.06478105
1149.00 0.06476055
1149.10 0.06474006
1149.20 0.06471957
1149.30 0.06469909
1149.40 0.06467862
1149.50 0.06465815
1149.60 0.06463769
1149.70 0.06461724
1149.80 0.06459679
1149.90 0.06457635
1150.00 0.06455591
1150.10 0.06453548
1150.20 0.06451505
1150.30 0.06449464
1150.40 0.06447422
1150.50 0.06445382
1150.60 0.06443342
1150.70 0.06441312
1150.80 0.06439282
1150.90 0.06437253
1151.00 0.06435224
1151.10 0.06433196
1151.20 0.06431169
1151.30 0.06429142
1151.40 0.06427116
1151.50 0.0642509
1151.60 0.06423065
1151.70 0.06421041
1151.80 0.06419017
1151.90 0.06416994
1152.00 0.06414972
1152.10 0.0641295
1152.20 0.06410928
1152.30 0.06408908
1152.40 0.06406888
1152.50 0.06404868
1152.60 0.06402849
1152.70 0.06400831
1152.80 0.06398813
1152.90 0.06396796
1153.00 0.0639478
1153.10 0.06392764
1153.20 0.06390748
1153.30 0.06388734
1153.40 0.0638672
1153.50 0.06384706
1153.60 0.06382693
1153.70 0.06380681
1153.80 0.06378669
1153.90 0.06376658
1154.00 0.06374648
1154.10 0.06372638
1154.20 0.06370629
1154.30 0.0636862
1154.40 0.06366612
1154.50 0.06364605
1154.60 0.06362598
1154.70 0.06360591
1154.80 0.06358586
1154.90 0.06356581
1155.00 0.06354576
1155.10 0.06352572
1155.20 0.06350569
1155.30 0.06348566
1155.40 0.06346564
1155.50 0.06344563
1155.60 0.06342562
1155.70 0.06340562
1155.80 0.06338562
1155.90 0.06336563
1156.00 0.06334564
1156.10 0.06332567
1156.20 0.06330569
1156.30 0.06328573
1156.40 0.06326592
1156.50 0.06324625
1156.60 0.06322658
1156.70 0.06320692
1156.80 0.06318727
1156.90 0.06316763
1157.00 0.06314798
1157.10 0.06312835
1157.20 0.06310872
1157.30 0.0630891
1157.40 0.06306948
1157.50 0.06304987
1157.60 0.06303026
1157.70 0.06301066
1157.80 0.06299107
1157.90 0.06297148
1158.00 0.06295189
1158.10 0.06293232
1158.20 0.06291275
1158.30 0.06289318
1158.40 0.06287362
1158.50 0.06285407
1158.60 0.06283452
1158.70 0.06281498
1158.80 0.06279544
1158.90 0.06277591
1159.00 0.06275639
1159.10 0.06273687
1159.20 0.06271736
1159.30 0.06269785
1159.40 0.06267835
1159.50 0.06265885
1159.60 0.06263936
1159.70 0.06261988
1159.80 0.0626004
1159.90 0.06258093
1160.00 0.06256146
1160.10 0.062542
1160.20 0.06252254
1160.30 0.06250309
1160.40 0.06248365
1160.50 0.06246421
1160.60 0.06244478
1160.70 0.06242536
1160.80 0.06240593
1160.90 0.06238652
1161.00 0.06236711
1161.10 0.06234771
1161.20 0.06232831
1161.30 0.06230892
1161.40 0.06228953
1161.50 0.06227015
1161.60 0.06225078
1161.70 0.06223141
1161.80 0.06221205
1161.90 0.06219269
1162.00 0.06217334
1162.10 0.06215399
1162.20 0.06213446
1162.30 0.06211493
1162.40 0.06209541
1162.50 0.0620759
1162.60 0.06205639
1162.70 0.06203688
1162.80 0.06201739
1162.90 0.06199789
1163.00 0.06197841
1163.10 0.06195893
1163.20 0.06193945
1163.30 0.06191998
1163.40 0.06190052
1163.50 0.06188106
1163.60 0.06186161
1163.70 0.06184216
1163.80 0.06182272
1163.90 0.06180329
1164.00 0.06178386
1164.10 0.06176444
1164.20 0.06174502
1164.30 0.06172561
1164.40 0.0617062
1164.50 0.0616868
1164.60 0.06166741
1164.70 0.06164802
1164.80 0.06162864
1164.90 0.06160926
1165.00 0.06158989
1165.10 0.06157052
1165.20 0.06155116
1165.30 0.06153181
1165.40 0.06151246
1165.50 0.06149312
1165.60 0.06147378
1165.70 0.06145445
1165.80 0.06143513
1165.90 0.06141581
1166.00 0.06139649
1166.10 0.06137719
1166.20 0.06135788
1166.30 0.06133859
1166.40 0.0613193
1166.50 0.06130001
1166.60 0.06128073
1166.70 0.06126146
1166.80 0.06124219
1166.90 0.06122293
1167.00 0.06120367
1167.10 0.06118442
1167.20 0.06116517
1167.30 0.06114593
1167.40 0.0611267
1167.50 0.06110747
1167.60 0.06108825
1167.70 0.06106903
1167.80 0.06104982
1167.90 0.06103062
1168.00 0.06101166
1168.10 0.06099274
1168.20 0.06097383
1168.30 0.06095492
1168.40 0.06093602
1168.50 0.06091712
1168.60 0.06089823
1168.70 0.06087935
1168.80 0.06086047
1168.90 0.06084159
1169.00 0.06082272
1169.10 0.06080386
1169.20 0.060785
1169.30 0.06076615
1169.40 0.0607473
1169.50 0.06072846
1169.60 0.06070962
1169.70 0.06069079
1169.80 0.06067197
1169.90 0.06065315
1170.00 0.06063434
1170.10 0.06061553
1170.20 0.06059673
1170.30 0.06057793
1170.40 0.06055914
1170.50 0.06054035
1170.60 0.06052157
1170.70 0.0605028
1170.80 0.06048403
1170.90 0.06046526
1171.00 0.06044651
1171.10 0.06042775
1171.20 0.06040901
1171.30 0.06039026
1171.40 0.06037153
1171.50 0.0603528
1171.60 0.06033407
1171.70 0.06031535
1171.80 0.06029664
1171.90 0.06027793
1172.00 0.06025923
1172.10 0.06024053
1172.20 0.06022184
1172.30 0.06020315
1172.40 0.06018447
1172.50 0.0601658
1172.60 0.06014712
1172.70 0.06012846
1172.80 0.0601098
1172.90 0.06009115
1173.00 0.0600725
1173.10 0.06005386
1173.20 0.06003522
1173.30 0.06001659
1173.40 0.05999796
1173.50 0.05997934
1173.60 0.05996073
1173.70 0.05994212
1173.80 0.05992358
1173.90 0.05990506
1174.00 0.05988655
1174.10 0.05986804
1174.20 0.05984954
1174.30 0.05983104
1174.40 0.05981255
1174.50 0.05979407
1174.60 0.05977559
1174.70 0.05975712
1174.80 0.05973865
1174.90 0.05972019
1175.00 0.05970173
1175.10 0.05968328
1175.20 0.05966483
1175.30 0.05964639
1175.40 0.05962795
1175.50 0.05960952
1175.60 0.0595911
1175.70 0.05957268
1175.80 0.05955426
1175.90 0.05953585
1176.00 0.05951745
1176.10 0.05949905
1176.20 0.05948066
1176.30 0.05946227
1176.40 0.05944389
1176.50 0.05942551
1176.60 0.05940714
1176.70 0.05938878
1176.80 0.05937042
1176.90 0.05935206
1177.00 0.05933371
1177.10 0.05931537
1177.20 0.05929703
1177.30 0.0592787
1177.40 0.05926037
1177.50 0.05924204
1177.60 0.05922373
1177.70 0.05920542
1177.80 0.05918711
1177.90 0.05916881
1178.00 0.05915051
1178.10 0.05913222
1178.20 0.05911394
1178.30 0.05909566
1178.40 0.05907738
1178.50 0.05905911
1178.60 0.05904085
1178.70 0.05902259
1178.80 0.05900434
1178.90 0.05898609
1179.00 0.05896785
1179.10 0.05894961
1179.20 0.05893138
1179.30 0.05891315
1179.40 0.05889493
1179.50 0.05887672
1179.60 0.0588585
1179.70 0.0588403
1179.80 0.0588221
1179.90 0.05880391
1180.00 0.05878572
1180.10 0.05876754
1180.20 0.05874936
1180.30 0.05873119
1180.40 0.05871302
1180.50 0.05869486
1180.60 0.05867671
1180.70 0.05865856
1180.80 0.05864041
1180.90 0.05862227
1181.00 0.05860414
1181.10 0.05858601
1181.20 0.05856788
1181.30 0.05854977
1181.40 0.05853165
1181.50 0.05851354
1181.60 0.05849544
1181.70 0.05847734
1181.80 0.05845925
1181.90 0.05844117
1182.00 0.05842308
1182.10 0.05840501
1182.20 0.05838694
1182.30 0.05836887
1182.40 0.05835081
1182.50 0.05833275
1182.60 0.0583147
1182.70 0.05829666
1182.80 0.05827862
1182.90 0.05826059
1183.00 0.05824256
1183.10 0.05822453
1183.20 0.05820652
1183.30 0.0581885
1183.40 0.05817049
1183.50 0.05815249
1183.60 0.05813449
1183.70 0.0581165
1183.80 0.05809852
1183.90 0.05808053
1184.00 0.05806256
1184.10 0.05804459
1184.20 0.05802662
1184.30 0.05800866
1184.40 0.0579907
1184.50 0.05797275
1184.60 0.05795481
1184.70 0.05793687
1184.80 0.05791894
1184.90 0.05790101
1185.00 0.05788308
1185.10 0.05786516
1185.20 0.05784725
1185.30 0.05782934
1185.40 0.05781144
1185.50 0.05779368
1185.60 0.05777613
1185.70 0.05775858
1185.80 0.05774104
1185.90 0.0577235
1186.00 0.05770597
1186.10 0.05768844
1186.20 0.05767092
1186.30 0.0576534
1186.40 0.05763589
1186.50 0.05761838
1186.60 0.05760088
1186.70 0.05758338
1186.80 0.05756589
1186.90 0.05754841
1187.00 0.05753092
1187.10 0.05751345
1187.20 0.05749598
1187.30 0.05747851
1187.40 0.05746105
1187.50 0.05744359
1187.60 0.05742614
1187.70 0.05740869
1187.80 0.05739125
1187.90 0.05737382
1188.00 0.05735639
1188.10 0.05733896
1188.20 0.05732154
1188.30 0.05730412
1188.40 0.05728671
1188.50 0.05726931
1188.60 0.05725191
1188.70 0.05723451
1188.80 0.05721712
1188.90 0.05719973
1189.00 0.05718235
1189.10 0.05716498
1189.20 0.05714761
1189.30 0.05713024
1189.40 0.05711288
1189.50 0.05709553
1189.60 0.05707818
1189.70 0.05706083
1189.80 0.05704349
1189.90 0.05702616
1190.00 0.05700883
1190.10 0.0569915
1190.20 0.05697418
1190.30 0.05695686
1190.40 0.05693955
1190.50 0.05692225
1190.60 0.05690495
1190.70 0.05688765
1190.80 0.05687036
1190.90 0.05685308
1191.00 0.0568358
1191.10 0.05681852
1191.20 0.05680125
1191.30 0.05678399
1191.40 0.05676673
1191.50 0.05674947
1191.60 0.05673222
1191.70 0.05671498
1191.80 0.05669774
1191.90 0.0566805
1192.00 0.05666327
1192.10 0.05664605
1192.20 0.05662883
1192.30 0.05661161
1192.40 0.0565944
1192.50 0.0565772
1192.60 0.05656
1192.70 0.0565428
1192.80 0.05652561
1192.90 0.05650842
1193.00 0.05649124
1193.10 0.05647407
1193.20 0.0564569
1193.30 0.05643973
1193.40 0.05642257
1193.50 0.05640542
1193.60 0.05638827
1193.70 0.05637112
1193.80 0.05635398
1193.90 0.05633684
1194.00 0.05631971
1194.10 0.05630259
1194.20 0.05628547
1194.30 0.05626835
1194.40 0.05625124
1194.50 0.05623413
1194.60 0.05621703
1194.70 0.05619993
1194.80 0.05618284
1194.90 0.05616576
1195.00 0.05614868
1195.10 0.0561316
1195.20 0.05611453
1195.30 0.05609746
1195.40 0.0560804
1195.50 0.05606334
1195.60 0.05604629
1195.70 0.05602924
1195.80 0.0560122
1195.90 0.05599516
1196.00 0.05597813
1196.10 0.0559611
1196.20 0.05594408
1196.30 0.05592706
1196.40 0.05591005
1196.50 0.05589304
1196.60 0.05587604
1196.70 0.05585904
1196.80 0.05584205
1196.90 0.05582506
1197.00 0.05580808
1197.10 0.0557911
1197.20 0.05577413
1197.30 0.05575716
1197.40 0.05574004
1197.50 0.05572291
1197.60 0.05570578
1197.70 0.05568865
1197.80 0.05567153
1197.90 0.05565442
1198.00 0.05563731
1198.10 0.0556202
1198.20 0.0556031
1198.30 0.05558601
1198.40 0.05556892
1198.50 0.05555183
1198.60 0.05553475
1198.70 0.05551768
1198.80 0.05550061
1198.90 0.05548354
1199.00 0.05546648
1199.10 0.05544943
1199.20 0.05543238
1199.30 0.05541533
1199.40 0.05539829
1199.50 0.05538125
1199.60 0.05536422
1199.70 0.0553472
1199.80 0.05533017
1199.90 0.05531316
1200.00 0.05529615
