# Wavelength(nm)  Flambda(ergs/cm^s/s/nm)
300.00 2.310799
300.10 2.308777
300.20 2.306755
300.30 2.304734
300.40 2.303723
300.50 2.301701
300.60 2.299679
300.70 2.297658
300.80 2.295636
300.90 2.294625
301.00 2.292603
301.10 2.290582
301.20 2.28856
301.30 2.287549
301.40 2.285527
301.50 2.283506
301.60 2.281484
301.70 2.279462
301.80 2.278452
301.90 2.27643
302.00 2.274408
302.10 2.272386
302.20 2.271376
302.30 2.269354
302.40 2.267332
302.50 2.26531
302.60 2.2643
302.70 2.262278
302.80 2.260256
302.90 2.258235
303.00 2.257224
303.10 2.255202
303.20 2.25318
303.30 2.251159
303.40 2.250148
303.50 2.248126
303.60 2.246104
303.70 2.244083
303.80 2.243072
303.90 2.24105
304.00 2.239028
304.10 2.237007
304.20 2.235996
304.30 2.233974
304.40 2.231952
304.50 2.230942
304.60 2.22892
304.70 2.226898
304.80 2.224877
304.90 2.223866
305.00 2.221844
305.10 2.219822
305.20 2.218811
305.30 2.21679
305.40 2.214768
305.50 2.213757
305.60 2.211736
305.70 2.209714
305.80 2.207692
305.90 2.206681
306.00 2.20466
306.10 2.202638
306.20 2.201627
306.30 2.199605
306.40 2.197584
306.50 2.196573
306.60 2.194551
306.70 2.192529
306.80 2.191519
306.90 2.189497
307.00 2.187475
307.10 2.186464
307.20 2.184443
307.30 2.182421
307.40 2.18141
307.50 2.179388
307.60 2.177367
307.70 2.176356
307.80 2.174334
307.90 2.172312
308.00 2.171302
308.10 2.16928
308.20 2.167258
308.30 2.166247
308.40 2.164226
308.50 2.162204
308.60 2.161193
308.70 2.159171
308.80 2.15715
308.90 2.156139
309.00 2.154117
309.10 2.152095
309.20 2.151085
309.30 2.149063
309.40 2.148052
309.50 2.14603
309.60 2.144009
309.70 2.142998
309.80 2.140976
309.90 2.138954
310.00 2.137944
310.10 2.135922
310.20 2.134911
310.30 2.132889
310.40 2.130868
310.50 2.129857
310.60 2.127835
310.70 2.125813
310.80 2.124803
310.90 2.122781
311.00 2.12177
311.10 2.119748
311.20 2.117727
311.30 2.116716
311.40 2.114694
311.50 2.113683
311.60 2.111662
311.70 2.10964
311.80 2.108629
311.90 2.106607
312.00 2.105596
312.10 2.103575
312.20 2.101553
312.30 2.100542
312.40 2.098521
312.50 2.09751
312.60 2.095488
312.70 2.094477
312.80 2.092455
312.90 2.090434
313.00 2.089423
313.10 2.087401
313.20 2.08639
313.30 2.084369
313.40 2.083358
313.50 2.081336
313.60 2.079314
313.70 2.078304
313.80 2.076282
313.90 2.075271
314.00 2.073249
314.10 2.072239
314.20 2.070217
314.30 2.069206
314.40 2.067184
314.50 2.065163
314.60 2.064152
314.70 2.06213
314.80 2.061119
314.90 2.059097
315.00 2.058087
315.10 2.056065
315.20 2.055054
315.30 2.053032
315.40 2.052022
315.50 2.05
315.60 2.047978
315.70 2.046967
315.80 2.044946
315.90 2.043935
316.00 2.041913
316.10 2.040902
316.20 2.038881
316.30 2.03787
316.40 2.035848
316.50 2.034837
316.60 2.032815
316.70 2.031805
316.80 2.029783
316.90 2.028772
317.00 2.02675
317.10 2.025739
317.20 2.023718
317.30 2.022707
317.40 2.020685
317.50 2.019674
317.60 2.017653
317.70 2.016642
317.80 2.01462
317.90 2.013609
318.00 2.011588
318.10 2.010577
318.20 2.008555
318.30 2.007544
318.40 2.005523
318.50 2.004512
318.60 2.00249
318.70 2.001479
318.80 1.999457
318.90 1.998447
319.00 1.996425
319.10 1.995414
319.20 1.993392
319.30 1.992382
319.40 1.99036
319.50 1.989349
319.60 1.987327
319.70 1.986316
319.80 1.985306
319.90 1.983284
320.00 1.982273
320.10 1.980251
320.20 1.97924
320.30 1.977219
320.40 1.976208
320.50 1.974186
320.60 1.973175
320.70 1.971154
320.80 1.970143
320.90 1.968121
321.00 1.96711
321.10 1.966099
321.20 1.964078
321.30 1.963067
321.40 1.961045
321.50 1.960034
321.60 1.958013
321.70 1.957002
321.80 1.95498
321.90 1.953969
322.00 1.952958
322.10 1.950937
322.20 1.949926
322.30 1.947904
322.40 1.946893
322.50 1.944872
322.60 1.943861
322.70 1.94285
322.80 1.940828
322.90 1.939817
323.00 1.937796
323.10 1.936785
323.20 1.934763
323.30 1.933752
323.40 1.932741
323.50 1.93072
323.60 1.929709
323.70 1.927687
323.80 1.926676
323.90 1.925666
324.00 1.923644
324.10 1.922633
324.20 1.920611
324.30 1.9196
324.40 1.917579
324.50 1.916568
324.60 1.915557
324.70 1.913535
324.80 1.912525
324.90 1.910503
325.00 1.909492
325.10 1.908481
325.20 1.906459
325.30 1.905449
325.40 1.904438
325.50 1.902416
325.60 1.901405
325.70 1.899383
325.80 1.898373
325.90 1.897362
326.00 1.89534
326.10 1.894329
326.20 1.892308
326.30 1.891297
326.40 1.890286
326.50 1.888264
326.60 1.887253
326.70 1.886242
326.80 1.884221
326.90 1.88321
327.00 1.881188
327.10 1.880177
327.20 1.879167
327.30 1.877145
327.40 1.876134
327.50 1.875123
327.60 1.873101
327.70 1.872091
327.80 1.87108
327.90 1.869058
328.00 1.868047
328.10 1.867036
328.20 1.865015
328.30 1.864004
328.40 1.861982
328.50 1.860971
328.60 1.85996
328.70 1.857939
328.80 1.856928
328.90 1.855917
329.00 1.853895
329.10 1.852884
329.20 1.851874
329.30 1.849852
329.40 1.848841
329.50 1.84783
329.60 1.845809
329.70 1.844798
329.80 1.843787
329.90 1.841765
330.00 1.840754
330.10 1.839743
330.20 1.837722
330.30 1.836711
330.40 1.8357
330.50 1.833678
330.60 1.832668
330.70 1.831657
330.80 1.829635
330.90 1.828624
331.00 1.827613
331.10 1.826602
331.20 1.824581
331.30 1.82357
331.40 1.822559
331.50 1.820537
331.60 1.819526
331.70 1.818516
331.80 1.816494
331.90 1.815483
332.00 1.814472
332.10 1.812451
332.20 1.81144
332.30 1.810429
332.40 1.809418
332.50 1.807396
332.60 1.806385
332.70 1.805375
332.80 1.803353
332.90 1.802342
333.00 1.801331
333.10 1.80032
333.20 1.798299
333.30 1.797288
333.40 1.796277
333.50 1.794255
333.60 1.793244
333.70 1.792234
333.80 1.791223
333.90 1.789201
334.00 1.78819
334.10 1.787179
334.20 1.785158
334.30 1.784147
334.40 1.783136
334.50 1.782125
334.60 1.780103
334.70 1.779093
334.80 1.778082
334.90 1.777071
335.00 1.775049
335.10 1.774038
335.20 1.773027
335.30 1.771006
335.40 1.769995
335.50 1.768984
335.60 1.767973
335.70 1.765952
335.80 1.764941
335.90 1.76393
336.00 1.762919
336.10 1.760897
336.20 1.759886
336.30 1.758876
336.40 1.757865
336.50 1.755843
336.60 1.754832
336.70 1.753821
336.80 1.752811
336.90 1.750789
337.00 1.749778
337.10 1.748767
337.20 1.747756
337.30 1.745735
337.40 1.744724
337.50 1.743713
337.60 1.742702
337.70 1.741691
337.80 1.739669
337.90 1.738659
338.00 1.737648
338.10 1.736637
338.20 1.734615
338.30 1.733604
338.40 1.732594
338.50 1.731583
338.60 1.729561
338.70 1.72855
338.80 1.727539
338.90 1.726528
339.00 1.725518
339.10 1.723496
339.20 1.722485
339.30 1.721474
339.40 1.720463
339.50 1.719453
339.60 1.717431
339.70 1.71642
339.80 1.715409
339.90 1.714398
340.00 1.712377
340.10 1.711366
340.20 1.710355
340.30 1.709344
340.40 1.708333
340.50 1.706312
340.60 1.705301
340.70 1.70429
340.80 1.703279
340.90 1.702268
341.00 1.700246
341.10 1.699236
341.20 1.698225
341.30 1.697214
341.40 1.696203
341.50 1.695192
341.60 1.69317
341.70 1.69216
341.80 1.691149
341.90 1.690138
342.00 1.689127
342.10 1.687105
342.20 1.686095
342.30 1.685084
342.40 1.684073
342.50 1.683062
342.60 1.68104
342.70 1.680029
342.80 1.679019
342.90 1.678008
343.00 1.676997
343.10 1.675986
343.20 1.673964
343.30 1.672954
343.40 1.671943
343.50 1.670932
343.60 1.669921
343.70 1.66891
343.80 1.666888
343.90 1.665878
344.00 1.664867
344.10 1.663856
344.20 1.662845
344.30 1.661834
344.40 1.659812
344.50 1.658802
344.60 1.657791
344.70 1.65678
344.80 1.655769
344.90 1.654758
345.00 1.653747
345.10 1.651726
345.20 1.650715
345.30 1.649704
345.40 1.648693
345.50 1.647682
345.60 1.646671
345.70 1.645661
345.80 1.643639
345.90 1.642628
346.00 1.641617
346.10 1.640606
346.20 1.639596
346.30 1.638585
346.40 1.637574
346.50 1.635552
346.60 1.634541
346.70 1.63353
346.80 1.63252
346.90 1.631509
347.00 1.630498
347.10 1.629487
347.20 1.627465
347.30 1.626455
347.40 1.625444
347.50 1.624433
347.60 1.623422
347.70 1.622411
347.80 1.6214
347.90 1.620389
348.00 1.618368
348.10 1.617357
348.20 1.616346
348.30 1.615335
348.40 1.614324
348.50 1.613313
348.60 1.612303
348.70 1.611292
348.80 1.610281
348.90 1.608259
349.00 1.607248
349.10 1.606238
349.20 1.605227
349.30 1.604216
349.40 1.603205
349.50 1.602194
349.60 1.601183
349.70 1.600172
349.80 1.598151
349.90 1.59714
350.00 1.596129
350.10 1.595118
350.20 1.594107
350.30 1.593097
350.40 1.592086
350.50 1.591075
350.60 1.590064
350.70 1.589053
350.80 1.588042
350.90 1.586021
351.00 1.58501
351.10 1.583999
351.20 1.582988
351.30 1.581977
351.40 1.580966
351.50 1.579956
351.60 1.578945
351.70 1.577934
351.80 1.576923
351.90 1.575912
352.00 1.57389
352.10 1.57288
352.20 1.571869
352.30 1.570858
352.40 1.569847
352.50 1.568836
352.60 1.567825
352.70 1.566814
352.80 1.565804
352.90 1.564793
353.00 1.563782
353.10 1.562771
353.20 1.56176
353.30 1.560749
353.40 1.558728
353.50 1.557717
353.60 1.556706
353.70 1.555695
353.80 1.554684
353.90 1.553673
354.00 1.552663
354.10 1.551652
354.20 1.550641
354.30 1.54963
354.40 1.548619
354.50 1.547608
354.60 1.546598
354.70 1.545587
354.80 1.544576
354.90 1.543565
355.00 1.542554
355.10 1.540532
355.20 1.539522
355.30 1.538511
355.40 1.5375
355.50 1.536489
355.60 1.535478
355.70 1.534467
355.80 1.533456
355.90 1.532446
356.00 1.531435
356.10 1.530424
356.20 1.529413
356.30 1.528402
356.40 1.527391
356.50 1.526381
356.60 1.52537
356.70 1.524359
356.80 1.523348
356.90 1.522337
357.00 1.521326
357.10 1.520315
357.20 1.519305
357.30 1.518294
357.40 1.517283
357.50 1.516272
357.60 1.515261
357.70 1.51324
357.80 1.512229
357.90 1.511218
358.00 1.510207
358.10 1.509196
358.20 1.508185
358.30 1.507174
358.40 1.506164
358.50 1.505153
358.60 1.504142
358.70 1.503131
358.80 1.50212
358.90 1.501109
359.00 1.500099
359.10 1.499088
359.20 1.498077
359.30 1.497066
359.40 1.496055
359.50 1.495044
359.60 1.494033
359.70 1.493023
359.80 1.492012
359.90 1.491001
360.00 1.48999
360.10 1.488979
360.20 1.487968
360.30 1.486957
360.40 1.485947
360.50 1.484936
360.60 1.483925
360.70 1.482914
360.80 1.481903
360.90 1.480892
361.00 1.479882
361.10 1.478871
361.20 1.47786
361.30 1.476849
361.40 1.475838
361.50 1.474827
361.60 1.473816
361.70 1.472806
361.80 1.471795
361.90 1.470784
362.00 1.469773
362.10 1.468762
362.20 1.467751
362.30 1.466741
362.40 1.46573
362.50 1.464719
362.60 1.463708
362.70 1.462697
362.80 1.461686
362.90 1.460675
363.00 1.459665
363.10 1.458654
363.20 1.457643
363.30 1.456632
363.40 1.455621
363.50 1.45461
363.60 1.453599
363.70 1.452589
363.80 1.451578
363.90 1.450567
364.00 1.449556
364.10 1.448545
364.20 1.447534
364.30 1.446524
364.40 1.444502
364.50 1.443491
364.60 1.44248
364.70 1.441469
364.80 1.440458
364.90 1.439448
365.00 1.438437
365.10 1.437426
365.20 1.436415
365.30 1.435404
365.40 1.434393
365.50 1.433383
365.60 1.431361
365.70 1.43035
365.80 1.429339
365.90 1.428328
366.00 1.427317
366.10 1.426307
366.20 1.425296
366.30 1.424285
366.40 1.423274
366.50 1.422263
366.60 1.421252
366.70 1.420242
366.80 1.419231
366.90 1.41822
367.00 1.417209
367.10 1.416198
367.20 1.415187
367.30 1.414176
367.40 1.413166
367.50 1.412155
367.60 1.412155
367.70 1.411144
367.80 1.410133
367.90 1.409122
368.00 1.408111
368.10 1.4071
368.20 1.40609
368.30 1.405079
368.40 1.404068
368.50 1.403057
368.60 1.403057
368.70 1.402046
368.80 1.401035
368.90 1.400025
369.00 1.399014
369.10 1.398003
369.20 1.398003
369.30 1.396992
369.40 1.395981
369.50 1.39497
369.60 1.393959
369.70 1.392949
369.80 1.392949
369.90 1.391938
370.00 1.390927
370.10 1.390927
370.20 1.389916
370.30 1.389916
370.40 1.389916
370.50 1.388905
370.60 1.388905
370.70 1.387894
370.80 1.387894
370.90 1.387894
371.00 1.386884
371.10 1.386884
371.20 1.386884
371.30 1.385873
371.40 1.385873
371.50 1.385873
371.60 1.384862
371.70 1.384862
371.80 1.384862
371.90 1.383851
372.00 1.383851
372.10 1.383851
372.20 1.384862
372.30 1.384862
372.40 1.384862
372.50 1.385873
372.60 1.385873
372.70 1.385873
372.80 1.386884
372.90 1.386884
373.00 1.387894
373.10 1.387894
373.20 1.387894
373.30 1.388905
373.40 1.388905
373.50 1.389916
373.60 1.389916
373.70 1.389916
373.80 1.390927
373.90 1.390927
374.00 1.390927
374.10 1.391938
374.20 1.392949
374.30 1.393959
374.40 1.39497
374.50 1.395981
374.60 1.395981
374.70 1.396992
374.80 1.398003
374.90 1.399014
375.00 1.400025
375.10 1.400025
375.20 1.401035
375.30 1.402046
375.40 1.403057
375.50 1.404068
375.60 1.404068
375.70 1.405079
375.80 1.40609
375.90 1.4071
376.00 1.408111
376.10 1.408111
376.20 1.408111
376.30 1.409122
376.40 1.409122
376.50 1.410133
376.60 1.410133
376.70 1.410133
376.80 1.411144
376.90 1.411144
377.00 1.411144
377.10 1.410133
377.20 1.409122
377.30 1.408111
377.40 1.4071
377.50 1.40609
377.60 1.405079
377.70 1.404068
377.80 1.403057
377.90 1.402046
378.00 1.401035
378.10 1.395981
378.20 1.390927
378.30 1.384862
378.40 1.379808
378.50 1.374753
378.60 1.368688
378.70 1.363634
378.80 1.35858
378.90 1.353526
379.00 1.34746
379.10 1.344428
379.20 1.340385
379.30 1.336341
379.40 1.332298
379.50 1.329265
379.60 1.325222
379.70 1.321178
379.80 1.318146
379.90 1.314102
380.00 1.310059
380.10 1.316124
380.20 1.321178
380.30 1.326233
380.40 1.332298
380.50 1.337352
380.60 1.342406
380.70 1.348471
380.80 1.353526
380.90 1.35858
381.00 1.364645
381.10 1.365656
381.20 1.367677
381.30 1.369699
381.40 1.37071
381.50 1.372732
381.60 1.371721
381.70 1.369699
381.80 1.366667
381.90 1.362623
382.00 1.35858
382.10 1.352515
382.20 1.345439
382.30 1.332298
382.40 1.319157
382.50 1.307027
382.60 1.293886
382.70 1.280744
382.80 1.268614
382.90 1.255473
383.00 1.242332
383.10 1.230202
383.20 1.217061
383.30 1.207963
383.40 1.196844
383.50 1.185725
383.60 1.187746
383.70 1.199877
383.80 1.210996
383.90 1.220094
384.00 1.232224
384.10 1.248397
384.20 1.264571
384.30 1.281755
384.40 1.297929
384.50 1.312081
384.60 1.325222
384.70 1.337352
384.80 1.34746
384.90 1.356558
385.00 1.364645
385.10 1.371721
385.20 1.376775
385.30 1.381829
385.40 1.384862
385.50 1.387894
385.60 1.389916
385.70 1.390927
385.80 1.391938
385.90 1.390927
386.00 1.389916
386.10 1.387894
386.20 1.385873
386.30 1.38284
386.40 1.378797
386.50 1.373742
386.60 1.368688
386.70 1.362623
386.80 1.355547
386.90 1.34746
387.00 1.339374
387.10 1.330276
387.20 1.320168
387.30 1.309048
387.40 1.297929
387.50 1.284788
387.60 1.270636
387.70 1.255473
387.80 1.238289
387.90 1.219083
388.00 1.198866
388.10 1.176627
388.20 1.151356
388.30 1.126085
388.40 1.097781
388.50 1.073521
388.60 1.050271
388.70 1.033087
388.80 1.017924
388.90 1.004176
389.00 1.015902
389.10 1.031065
389.20 1.048249
389.30 1.070488
389.40 1.094748
389.50 1.122041
389.60 1.148323
389.70 1.173595
389.80 1.197855
389.90 1.219083
390.00 1.238289
390.10 1.256484
390.20 1.273669
390.30 1.288831
390.40 1.303994
390.50 1.318146
390.60 1.331287
390.70 1.343417
390.80 1.354536
390.90 1.365656
391.00 1.376775
391.10 1.386884
391.20 1.395981
391.30 1.405079
391.40 1.414176
391.50 1.421252
391.60 1.429339
391.70 1.435404
391.80 1.441469
391.90 1.447534
392.00 1.452589
392.10 1.456632
392.20 1.459665
392.30 1.462697
392.40 1.464719
392.50 1.466741
392.60 1.466741
392.70 1.466741
392.80 1.466741
392.90 1.464719
393.00 1.462697
393.10 1.459665
393.20 1.455621
393.30 1.451578
393.40 1.446524
393.50 1.440458
393.60 1.434393
393.70 1.427317
393.80 1.419231
393.90 1.410133
394.00 1.401035
394.10 1.390927
394.20 1.379808
394.30 1.368688
394.40 1.355547
394.50 1.343417
394.60 1.330276
394.70 1.316124
394.80 1.301972
394.90 1.28681
395.00 1.271647
395.10 1.255473
395.20 1.2393
395.30 1.222115
395.40 1.204931
395.50 1.186736
395.60 1.16854
395.70 1.149334
395.80 1.129117
395.90 1.1089
396.00 1.086662
396.10 1.064423
396.20 1.040163
396.30 1.01287
396.40 0.9842627
396.50 0.9514102
396.60 0.9185576
396.70 0.8858061
396.80 0.8590187
396.90 0.8302095
397.00 0.7995808
397.10 0.8273791
397.20 0.8540655
397.30 0.8795389
397.40 0.9112795
397.50 0.9432223
397.60 0.9753673
397.70 1.003772
397.80 1.030054
397.90 1.054315
398.00 1.076553
398.10 1.09677
398.20 1.116987
398.30 1.136193
398.40 1.155399
398.50 1.173595
398.60 1.190779
398.70 1.207963
398.80 1.225148
398.90 1.241321
399.00 1.257495
399.10 1.273669
399.20 1.288831
399.30 1.303994
399.40 1.319157
399.50 1.333309
399.60 1.34746
399.70 1.361612
399.80 1.374753
399.90 1.387894
400.00 1.401035
400.10 1.413166
400.20 1.425296
400.30 1.437426
400.40 1.447534
400.50 1.458654
400.60 1.468762
400.70 1.478871
400.80 1.487968
400.90 1.497066
401.00 1.506164
401.10 1.51425
401.20 1.522337
401.30 1.529413
401.40 1.536489
401.50 1.543565
401.60 1.54963
401.70 1.555695
401.80 1.560749
401.90 1.565804
402.00 1.570858
402.10 1.574901
402.20 1.578945
402.30 1.581977
402.40 1.586021
402.50 1.588042
402.60 1.591075
402.70 1.593097
402.80 1.595118
402.90 1.596129
403.00 1.59714
403.10 1.59714
403.20 1.598151
403.30 1.598151
403.40 1.59714
403.50 1.596129
403.60 1.595118
403.70 1.594107
403.80 1.592086
403.90 1.589053
404.00 1.587031
404.10 1.583999
404.20 1.579956
404.30 1.576923
404.40 1.57288
404.50 1.567825
404.60 1.562771
404.70 1.557717
404.80 1.552663
404.90 1.546598
405.00 1.539522
405.10 1.533456
405.20 1.52537
405.30 1.518294
405.40 1.510207
405.50 1.50212
405.60 1.493023
405.70 1.483925
405.80 1.474827
405.90 1.464719
406.00 1.45461
406.10 1.444502
406.20 1.433383
406.30 1.422263
406.40 1.410133
406.50 1.398003
406.60 1.384862
406.70 1.372732
406.80 1.359591
406.90 1.345439
407.00 1.331287
407.10 1.317135
407.20 1.301972
407.30 1.28681
407.40 1.271647
407.50 1.255473
407.60 1.2393
407.70 1.223126
407.80 1.205942
407.90 1.188757
408.00 1.171573
408.10 1.154388
408.20 1.137204
408.30 1.119009
408.40 1.100814
408.50 1.082618
408.60 1.064423
408.70 1.045217
408.80 1.026011
408.90 1.007209
409.00 0.9879018
409.10 0.9681903
409.20 0.9480744
409.30 0.9275542
409.40 0.9050123
409.50 0.8807519
409.60 0.8548742
409.70 0.8250542
409.80 0.7941222
409.90 0.7619773
410.00 0.7280128
410.10 0.6973841
410.20 0.6701923
410.30 0.7098175
410.40 0.7455004
410.50 0.7772411
410.60 0.808173
410.70 0.8373865
410.80 0.8648816
410.90 0.8885354
411.00 0.910673
411.10 0.9312943
411.20 0.9503993
411.30 0.9692011
411.40 0.9875985
411.50 1.005592
411.60 1.022978
411.70 1.041173
411.80 1.058358
411.90 1.075542
412.00 1.092727
412.10 1.1089
412.20 1.125074
412.30 1.141247
412.40 1.157421
412.50 1.173595
412.60 1.188757
412.70 1.20392
412.80 1.219083
412.90 1.234245
413.00 1.248397
413.10 1.262549
413.20 1.276701
413.30 1.289842
413.40 1.302983
413.50 1.316124
413.60 1.328254
413.70 1.340385
413.80 1.351504
413.90 1.363634
414.00 1.374753
414.10 1.385873
414.20 1.395981
414.30 1.40609
414.40 1.416198
414.50 1.426307
414.60 1.435404
414.70 1.445513
414.80 1.453599
414.90 1.462697
415.00 1.470784
415.10 1.478871
415.20 1.486957
415.30 1.495044
415.40 1.50212
415.50 1.509196
415.60 1.516272
415.70 1.522337
415.80 1.529413
415.90 1.535478
416.00 1.541543
416.10 1.546598
416.20 1.552663
416.30 1.557717
416.40 1.562771
416.50 1.567825
416.60 1.57288
416.70 1.577934
416.80 1.581977
416.90 1.586021
417.00 1.590064
417.10 1.594107
417.20 1.598151
417.30 1.601183
417.40 1.605227
417.50 1.608259
417.60 1.611292
417.70 1.614324
417.80 1.617357
417.90 1.620389
418.00 1.622411
418.10 1.624433
418.20 1.627465
418.30 1.629487
418.40 1.631509
418.50 1.63353
418.60 1.635552
418.70 1.636563
418.80 1.638585
418.90 1.639596
419.00 1.641617
419.10 1.642628
419.20 1.643639
419.30 1.64465
419.40 1.645661
419.50 1.646671
419.60 1.647682
419.70 1.647682
419.80 1.648693
419.90 1.648693
420.00 1.649704
420.10 1.649704
420.20 1.649704
420.30 1.649704
420.40 1.649704
420.50 1.649704
420.60 1.649704
420.70 1.649704
420.80 1.649704
420.90 1.649704
421.00 1.648693
421.10 1.648693
421.20 1.647682
421.30 1.647682
421.40 1.646671
421.50 1.645661
421.60 1.645661
421.70 1.64465
421.80 1.643639
421.90 1.642628
422.00 1.641617
422.10 1.639596
422.20 1.638585
422.30 1.637574
422.40 1.636563
422.50 1.634541
422.60 1.63353
422.70 1.631509
422.80 1.629487
422.90 1.628476
423.00 1.626455
423.10 1.624433
423.20 1.622411
423.30 1.620389
423.40 1.618368
423.50 1.616346
423.60 1.614324
423.70 1.611292
423.80 1.60927
423.90 1.607248
424.00 1.604216
424.10 1.601183
424.20 1.599162
424.30 1.596129
424.40 1.593097
424.50 1.590064
424.60 1.587031
424.70 1.583999
424.80 1.580966
424.90 1.577934
425.00 1.574901
425.10 1.570858
425.20 1.567825
425.30 1.563782
425.40 1.559739
425.50 1.556706
425.60 1.552663
425.70 1.548619
425.80 1.544576
425.90 1.540532
426.00 1.535478
426.10 1.531435
426.20 1.52537
426.30 1.520315
426.40 1.516272
426.50 1.511218
426.60 1.506164
426.70 1.501109
426.80 1.495044
426.90 1.48999
427.00 1.483925
427.10 1.478871
427.20 1.472806
427.30 1.466741
427.40 1.460675
427.50 1.45461
427.60 1.448545
427.70 1.441469
427.80 1.435404
427.90 1.428328
428.00 1.421252
428.10 1.414176
428.20 1.4071
428.30 1.399014
428.40 1.391938
428.50 1.383851
428.60 1.375764
428.70 1.367677
428.80 1.359591
428.90 1.350493
429.00 1.342406
429.10 1.333309
429.20 1.324211
429.30 1.315113
429.40 1.305005
429.50 1.295907
429.60 1.285799
429.70 1.27569
429.80 1.265582
429.90 1.254462
430.00 1.244354
430.10 1.233235
430.20 1.222115
430.30 1.210996
430.40 1.198866
430.50 1.187746
430.60 1.175616
430.70 1.163486
430.80 1.151356
430.90 1.139226
431.00 1.126085
431.10 1.112944
431.20 1.099803
431.30 1.086662
431.40 1.073521
431.50 1.06038
431.60 1.046228
431.70 1.032076
431.80 1.017924
431.90 1.003772
432.00 0.9891148
432.10 0.9743564
432.20 0.9590926
432.30 0.9435256
432.40 0.9276553
432.50 0.9109763
432.60 0.893994
432.70 0.8766074
432.80 0.8589176
432.90 0.8413288
433.00 0.8237401
433.10 0.80696
433.20 0.7899778
433.30 0.7728944
433.40 0.7539916
433.50 0.7335724
433.60 0.7115359
433.70 0.684142
433.80 0.6533111
433.90 0.6192455
434.00 0.5597066
434.10 0.5605152
434.20 0.6217726
434.30 0.6547263
434.40 0.6843441
434.50 0.7108283
434.60 0.731854
434.70 0.7513634
434.80 0.7692554
434.90 0.7854289
435.00 0.8015014
435.10 0.8174728
435.20 0.8340507
435.30 0.8506286
435.40 0.8672065
435.50 0.8834812
435.60 0.8992504
435.70 0.9146153
435.80 0.9291715
435.90 0.9434245
436.00 0.9573742
436.10 0.9709196
436.20 0.9841617
436.30 0.9972016
436.40 1.009837
436.50 1.021967
436.60 1.034098
436.70 1.046228
436.80 1.058358
436.90 1.069477
437.00 1.081607
437.10 1.092727
437.20 1.103846
437.30 1.113955
437.40 1.125074
437.50 1.135182
437.60 1.145291
437.70 1.154388
437.80 1.164497
437.90 1.173595
438.00 1.182692
438.10 1.19179
438.20 1.200887
438.30 1.208974
438.40 1.218072
438.50 1.226159
438.60 1.234245
438.70 1.241321
438.80 1.249408
438.90 1.256484
439.00 1.26356
439.10 1.270636
439.20 1.276701
439.30 1.283777
439.40 1.289842
439.50 1.295907
439.60 1.301972
439.70 1.308037
439.80 1.313092
439.90 1.318146
440.00 1.324211
440.10 1.329265
440.20 1.334319
440.30 1.338363
440.40 1.343417
440.50 1.34746
440.60 1.351504
440.70 1.356558
440.80 1.360601
440.90 1.364645
441.00 1.367677
441.10 1.371721
441.20 1.374753
441.30 1.378797
441.40 1.381829
441.50 1.384862
441.60 1.387894
441.70 1.390927
441.80 1.393959
441.90 1.396992
442.00 1.399014
442.10 1.402046
442.20 1.404068
442.30 1.4071
442.40 1.409122
442.50 1.411144
442.60 1.413166
442.70 1.415187
442.80 1.417209
442.90 1.41822
443.00 1.420242
443.10 1.422263
443.20 1.423274
443.30 1.425296
443.40 1.426307
443.50 1.428328
443.60 1.429339
443.70 1.43035
443.80 1.432372
443.90 1.433383
444.00 1.434393
444.10 1.435404
444.20 1.436415
444.30 1.437426
444.40 1.438437
444.50 1.438437
444.60 1.439448
444.70 1.440458
444.80 1.441469
444.90 1.441469
445.00 1.44248
445.10 1.44248
445.20 1.443491
445.30 1.443491
445.40 1.444502
445.50 1.444502
445.60 1.445513
445.70 1.445513
445.80 1.445513
445.90 1.445513
446.00 1.446524
446.10 1.446524
446.20 1.446524
446.30 1.446524
446.40 1.446524
446.50 1.446524
446.60 1.446524
446.70 1.447534
446.80 1.447534
446.90 1.447534
447.00 1.446524
447.10 1.446524
447.20 1.446524
447.30 1.446524
447.40 1.446524
447.50 1.446524
447.60 1.446524
447.70 1.445513
447.80 1.445513
447.90 1.445513
448.00 1.445513
448.10 1.445513
448.20 1.444502
448.30 1.444502
448.40 1.444502
448.50 1.443491
448.60 1.443491
448.70 1.44248
448.80 1.44248
448.90 1.44248
449.00 1.44248
449.10 1.441469
449.20 1.441469
449.30 1.440458
449.40 1.440458
449.50 1.439448
449.60 1.439448
449.70 1.438437
449.80 1.438437
449.90 1.437426
450.00 1.437426
450.10 1.436415
450.20 1.436415
450.30 1.435404
450.40 1.434393
450.50 1.434393
450.60 1.433383
450.70 1.433383
450.80 1.432372
450.90 1.431361
451.00 1.431361
451.10 1.43035
451.20 1.429339
451.30 1.429339
451.40 1.428328
451.50 1.427317
451.60 1.427317
451.70 1.426307
451.80 1.425296
451.90 1.425296
452.00 1.424285
452.10 1.423274
452.20 1.422263
452.30 1.422263
452.40 1.421252
452.50 1.420242
452.60 1.419231
452.70 1.419231
452.80 1.41822
452.90 1.417209
453.00 1.416198
453.10 1.416198
453.20 1.415187
453.30 1.414176
453.40 1.413166
453.50 1.413166
453.60 1.412155
453.70 1.411144
453.80 1.410133
453.90 1.409122
454.00 1.408111
454.10 1.408111
454.20 1.4071
454.30 1.40609
454.40 1.405079
454.50 1.404068
454.60 1.403057
454.70 1.403057
454.80 1.402046
454.90 1.401035
455.00 1.400025
455.10 1.399014
455.20 1.398003
455.30 1.396992
455.40 1.396992
455.50 1.395981
455.60 1.39497
455.70 1.393959
455.80 1.392949
455.90 1.391938
456.00 1.390927
456.10 1.389916
456.20 1.389916
456.30 1.388905
456.40 1.387894
456.50 1.386884
456.60 1.385873
456.70 1.384862
456.80 1.383851
456.90 1.38284
457.00 1.38284
457.10 1.381829
457.20 1.380818
457.30 1.379808
457.40 1.378797
457.50 1.377786
457.60 1.376775
457.70 1.375764
457.80 1.374753
457.90 1.373742
458.00 1.372732
458.10 1.371721
458.20 1.371721
458.30 1.37071
458.40 1.369699
458.50 1.368688
458.60 1.367677
458.70 1.366667
458.80 1.365656
458.90 1.364645
459.00 1.363634
459.10 1.362623
459.20 1.361612
459.30 1.360601
459.40 1.359591
459.50 1.35858
459.60 1.357569
459.70 1.356558
459.80 1.355547
459.90 1.354536
460.00 1.353526
460.10 1.352515
460.20 1.351504
460.30 1.350493
460.40 1.349482
460.50 1.348471
460.60 1.34746
460.70 1.34645
460.80 1.345439
460.90 1.344428
461.00 1.343417
461.10 1.342406
461.20 1.341395
461.30 1.340385
461.40 1.339374
461.50 1.338363
461.60 1.337352
461.70 1.336341
461.80 1.33533
461.90 1.334319
462.00 1.333309
462.10 1.332298
462.20 1.331287
462.30 1.330276
462.40 1.329265
462.50 1.328254
462.60 1.327243
462.70 1.326233
462.80 1.325222
462.90 1.324211
463.00 1.3232
463.10 1.322189
463.20 1.321178
463.30 1.320168
463.40 1.318146
463.50 1.317135
463.60 1.316124
463.70 1.315113
463.80 1.314102
463.90 1.313092
464.00 1.312081
464.10 1.31107
464.20 1.310059
464.30 1.309048
464.40 1.308037
464.50 1.307027
464.60 1.306016
464.70 1.303994
464.80 1.302983
464.90 1.301972
465.00 1.300961
465.10 1.299951
465.20 1.29894
465.30 1.297929
465.40 1.296918
465.50 1.295907
465.60 1.293886
465.70 1.292875
465.80 1.291864
465.90 1.290853
466.00 1.289842
466.10 1.288831
466.20 1.28782
466.30 1.28681
466.40 1.284788
466.50 1.283777
466.60 1.282766
466.70 1.281755
466.80 1.280744
466.90 1.279734
467.00 1.277712
467.10 1.276701
467.20 1.27569
467.30 1.274679
467.40 1.273669
467.50 1.271647
467.60 1.270636
467.70 1.269625
467.80 1.268614
467.90 1.266593
468.00 1.265582
468.10 1.264571
468.20 1.26356
468.30 1.262549
468.40 1.260528
468.50 1.259517
468.60 1.258506
468.70 1.256484
468.80 1.255473
468.90 1.254462
469.00 1.253452
469.10 1.25143
469.20 1.250419
469.30 1.249408
469.40 1.247386
469.50 1.246376
469.60 1.245365
469.70 1.243343
469.80 1.242332
469.90 1.241321
470.00 1.2393
470.10 1.238289
470.20 1.237278
470.30 1.235256
470.40 1.234245
470.50 1.232224
470.60 1.231213
470.70 1.230202
470.80 1.22818
470.90 1.22717
471.00 1.225148
471.10 1.224137
471.20 1.223126
471.30 1.221104
471.40 1.220094
471.50 1.218072
471.60 1.21605
471.70 1.215039
471.80 1.213018
471.90 1.212007
472.00 1.209985
472.10 1.208974
472.20 1.206953
472.30 1.204931
472.40 1.20392
472.50 1.201898
472.60 1.199877
472.70 1.198866
472.80 1.196844
472.90 1.194822
473.00 1.193812
473.10 1.19179
473.20 1.189768
473.30 1.187746
473.40 1.185725
473.50 1.184714
473.60 1.182692
473.70 1.180671
473.80 1.178649
473.90 1.176627
474.00 1.174605
474.10 1.173595
474.20 1.170562
474.30 1.16854
474.40 1.166519
474.50 1.164497
474.60 1.162475
474.70 1.160454
474.80 1.158432
474.90 1.15641
475.00 1.154388
475.10 1.152367
475.20 1.149334
475.30 1.147313
475.40 1.145291
475.50 1.142258
475.60 1.140237
475.70 1.138215
475.80 1.135182
475.90 1.133161
476.00 1.130128
476.10 1.128106
476.20 1.126085
476.30 1.123052
476.40 1.12002
476.50 1.116987
476.60 1.114965
476.70 1.111933
476.80 1.1089
476.90 1.105868
477.00 1.103846
477.10 1.100814
477.20 1.097781
477.30 1.094748
477.40 1.091716
477.50 1.088683
477.60 1.08464
477.70 1.081607
477.80 1.078575
477.90 1.075542
478.00 1.07251
478.10 1.069477
478.20 1.065434
478.30 1.06139
478.40 1.058358
478.50 1.054315
478.60 1.050271
478.70 1.046228
478.80 1.043195
478.90 1.039152
479.00 1.035108
479.10 1.031065
479.20 1.027022
479.30 1.022978
479.40 1.017924
479.50 1.013881
479.60 1.009534
479.70 1.005086
479.80 1.000638
479.90 0.9962918
480.00 0.9918441
480.10 0.9873964
480.20 0.9824432
480.30 0.9771868
480.40 0.9719304
480.50 0.966674
480.60 0.9615187
480.70 0.9562623
480.80 0.9510058
480.90 0.9458505
481.00 0.9405941
481.10 0.9354388
481.20 0.9294748
481.30 0.9233086
481.40 0.9170413
481.50 0.9108752
481.60 0.904709
481.70 0.8984417
481.80 0.8922756
481.90 0.8861094
482.00 0.8799432
482.10 0.8737771
482.20 0.8668022
482.30 0.8595241
482.40 0.852246
482.50 0.8449679
482.60 0.8376898
482.70 0.8304117
482.80 0.8231336
482.90 0.8158555
483.00 0.8085774
483.10 0.8014003
483.20 0.7931114
483.30 0.7845192
483.40 0.7758259
483.50 0.7672337
483.60 0.7585404
483.70 0.7499482
483.80 0.741356
483.90 0.7327638
484.00 0.7240705
484.10 0.7154782
484.20 0.7060774
484.30 0.6963732
484.40 0.686568
484.50 0.6768639
484.60 0.6670586
484.70 0.656748
484.80 0.6462352
484.90 0.6357223
485.00 0.6253106
485.10 0.6147978
485.20 0.6040828
485.30 0.5932667
485.40 0.5819452
485.50 0.5703205
485.60 0.5575838
485.70 0.5442406
485.80 0.5265507
485.90 0.5070414
486.00 0.4781311
486.10 0.4080794
486.20 0.4387081
486.30 0.489857
486.40 0.5122978
486.50 0.531605
486.60 0.5465655
486.70 0.5594033
486.80 0.5710281
486.90 0.5819452
487.00 0.592458
487.10 0.6025665
487.20 0.6124728
487.30 0.6222781
487.40 0.6320833
487.50 0.6417874
487.60 0.6515927
487.70 0.6607914
487.80 0.6696868
487.90 0.6786834
488.00 0.6875788
488.10 0.6964743
488.20 0.7045611
488.30 0.7121425
488.40 0.7198249
488.50 0.7274063
488.60 0.7350887
488.70 0.7426701
488.80 0.7502514
488.90 0.7579339
489.00 0.7655152
489.10 0.7730966
489.20 0.7796671
489.30 0.7857322
489.40 0.7918984
489.50 0.7979634
489.60 0.8040285
489.70 0.8100936
489.80 0.8161587
489.90 0.8222238
490.00 0.8282889
490.10 0.834354
490.20 0.8396104
490.30 0.8444625
490.40 0.8493145
490.50 0.8541666
490.60 0.8590187
490.70 0.8638707
490.80 0.8686217
490.90 0.8734738
491.00 0.8783259
491.10 0.8831779
491.20 0.8872213
491.30 0.8909615
491.40 0.8947016
491.50 0.8984417
491.60 0.9021819
491.70 0.9060231
491.80 0.9096622
491.90 0.9134023
492.00 0.9171424
492.10 0.9208826
492.20 0.9240162
492.30 0.9269477
492.40 0.929778
492.50 0.9326084
492.60 0.9355399
492.70 0.9383702
492.80 0.9412006
492.90 0.9441321
493.00 0.9469625
493.10 0.9497928
493.20 0.9522189
493.30 0.9543416
493.40 0.9564644
493.50 0.9586883
493.60 0.9608111
493.70 0.9629339
493.80 0.9650566
493.90 0.9671794
494.00 0.9694033
494.10 0.9715261
494.20 0.9732445
494.30 0.9747608
494.40 0.976277
494.50 0.9777933
494.60 0.9793096
494.70 0.9808259
494.80 0.9823421
494.90 0.9839595
495.00 0.9854758
495.10 0.986992
495.20 0.9882051
495.30 0.9892159
495.40 0.9903278
495.50 0.9913387
495.60 0.9923495
495.70 0.9934615
495.80 0.9944723
495.90 0.9955842
496.00 0.9965951
496.10 0.997707
496.20 0.9984146
496.30 0.9991222
496.40 0.9998298
496.50 1.000537
496.60 1.001245
496.70 1.001852
496.80 1.002559
496.90 1.003267
497.00 1.003974
497.10 1.004682
497.20 1.005086
497.30 1.005491
497.40 1.005895
497.50 1.006299
497.60 1.006704
497.70 1.007108
497.80 1.007512
497.90 1.007917
498.00 1.008321
498.10 1.008725
498.20 1.009029
498.30 1.009231
498.40 1.009332
498.50 1.009534
498.60 1.009736
498.70 1.009938
498.80 1.01014
498.90 1.010343
499.00 1.010545
499.10 1.010646
499.20 1.010747
499.30 1.010747
499.40 1.010747
499.50 1.010747
499.60 1.010848
499.70 1.010848
499.80 1.010848
499.90 1.010848
500.00 1.010848
500.10 1.010848
500.20 1.010747
500.30 1.010646
500.40 1.010545
500.50 1.010444
500.60 1.010343
500.70 1.010242
500.80 1.010039
500.90 1.009938
501.00 1.009837
501.10 1.009736
501.20 1.009534
501.30 1.009332
501.40 1.00913
501.50 1.008927
501.60 1.008725
501.70 1.008523
501.80 1.00822
501.90 1.008018
502.00 1.007816
502.10 1.007613
502.20 1.00731
502.30 1.007108
502.40 1.006805
502.50 1.006501
502.60 1.006198
502.70 1.005895
502.80 1.005592
502.90 1.005288
503.00 1.005086
503.10 1.004783
503.20 1.004379
503.30 1.004075
503.40 1.003671
503.50 1.003368
503.60 1.002963
503.70 1.00266
503.80 1.002256
503.90 1.001953
504.00 1.001548
504.10 1.001245
504.20 1.000841
504.30 1.000436
504.40 1.000032
504.50 0.9996276
504.60 0.9992233
504.70 0.998819
504.80 0.9984146
504.90 0.9980103
505.00 0.9976059
505.10 0.9972016
505.20 0.9967973
505.30 0.9962918
505.40 0.9958875
505.50 0.9954832
505.60 0.9949777
505.70 0.9945734
505.80 0.9941691
505.90 0.9937647
506.00 0.9932593
506.10 0.992855
506.20 0.9923495
506.30 0.9919452
506.40 0.9914398
506.50 0.9909343
506.60 0.9904289
506.70 0.9900246
506.80 0.9895192
506.90 0.9890137
507.00 0.9886094
507.10 0.988104
507.20 0.9875985
507.30 0.9870931
507.40 0.9866888
507.50 0.9861834
507.60 0.9856779
507.70 0.9851725
507.80 0.9846671
507.90 0.9841617
508.00 0.9836562
508.10 0.9832519
508.20 0.9827465
508.30 0.982241
508.40 0.9817356
508.50 0.9811291
508.60 0.9806237
508.70 0.9801183
508.80 0.9796128
508.90 0.9791074
509.00 0.978602
509.10 0.9780966
509.20 0.9775911
509.30 0.9770857
509.40 0.9764792
509.50 0.9759738
509.60 0.9754684
509.70 0.9749629
509.80 0.9743564
509.90 0.973851
510.00 0.9733456
510.10 0.9728402
510.20 0.9722337
510.30 0.9717282
510.40 0.9712228
510.50 0.9706163
510.60 0.9701109
510.70 0.9696054
510.80 0.9689989
510.90 0.9684935
511.00 0.9679881
511.10 0.9673816
511.20 0.9668762
511.30 0.9663707
511.40 0.9657642
511.50 0.9652588
511.60 0.9646523
511.70 0.9641469
511.80 0.9636414
511.90 0.9630349
512.00 0.9625295
512.10 0.9620241
512.20 0.9614176
512.30 0.9609122
512.40 0.9603056
512.50 0.9598002
512.60 0.9591937
512.70 0.9586883
512.80 0.9580818
512.90 0.9575764
513.00 0.9569698
513.10 0.9564644
513.20 0.9558579
513.30 0.9553525
513.40 0.954746
513.50 0.9542406
513.60 0.953634
513.70 0.9531286
513.80 0.9525221
513.90 0.9520167
514.00 0.9515113
514.10 0.9509048
514.20 0.9503993
514.30 0.9497928
514.40 0.9492874
514.50 0.9486809
514.60 0.9481755
514.70 0.947569
514.80 0.9470635
514.90 0.946457
515.00 0.9459516
515.10 0.9453451
515.20 0.9448397
515.30 0.9442332
515.40 0.9436267
515.50 0.9431212
515.60 0.9425147
515.70 0.9420093
515.80 0.9414028
515.90 0.9408974
516.00 0.9402909
516.10 0.9397854
516.20 0.9391789
516.30 0.9385724
516.40 0.938067
516.50 0.9374605
516.60 0.9369551
516.70 0.9363485
516.80 0.935742
516.90 0.9352366
517.00 0.9346301
517.10 0.9341247
517.20 0.9335182
517.30 0.9329117
517.40 0.9324062
517.50 0.9317997
517.60 0.9312943
517.70 0.9306878
517.80 0.9301824
517.90 0.9295759
518.00 0.9290704
518.10 0.9284639
518.20 0.9278574
518.30 0.927352
518.40 0.9267455
518.50 0.9262401
518.60 0.9256336
518.70 0.9251281
518.80 0.9245216
518.90 0.9240162
519.00 0.9234097
519.10 0.9229043
519.20 0.9222978
519.30 0.9217923
519.40 0.9211858
519.50 0.9205793
519.60 0.9200739
519.70 0.9194674
519.80 0.918962
519.90 0.9183555
520.00 0.91785
520.10 0.9172435
520.20 0.9167381
520.30 0.9161316
520.40 0.9155251
520.50 0.9150197
520.60 0.9144131
520.70 0.9139077
520.80 0.9133012
520.90 0.9127958
521.00 0.9121893
521.10 0.9116839
521.20 0.9110773
521.30 0.9105719
521.40 0.9099654
521.50 0.90946
521.60 0.9088535
521.70 0.9083481
521.80 0.9077415
521.90 0.9072361
522.00 0.9066296
522.10 0.9061242
522.20 0.9055177
522.30 0.9050123
522.40 0.9044057
522.50 0.9039003
522.60 0.9032938
522.70 0.9027884
522.80 0.9021819
522.90 0.9015754
523.00 0.90107
523.10 0.9004634
523.20 0.899958
523.30 0.8994526
523.40 0.8988461
523.50 0.8983407
523.60 0.8977342
523.70 0.8972287
523.80 0.8966222
523.90 0.8961168
524.00 0.8956114
524.10 0.8950049
524.20 0.8944994
524.30 0.8938929
524.40 0.8933875
524.50 0.892781
524.60 0.8922756
524.70 0.8916691
524.80 0.8911636
524.90 0.8905571
525.00 0.8900517
525.10 0.8894452
525.20 0.8889398
525.30 0.8884344
525.40 0.8878278
525.50 0.8873224
525.60 0.8867159
525.70 0.8862105
525.80 0.885604
525.90 0.8850986
526.00 0.8845931
526.10 0.8839866
526.20 0.8834812
526.30 0.8828747
526.40 0.8823693
526.50 0.8818638
526.60 0.8812573
526.70 0.8807519
526.80 0.8801454
526.90 0.87964
527.00 0.8791345
527.10 0.878528
527.20 0.8780226
527.30 0.8774161
527.40 0.8769107
527.50 0.8764053
527.60 0.8757987
527.70 0.8752933
527.80 0.8747879
527.90 0.8741814
528.00 0.873676
528.10 0.8731705
528.20 0.872564
528.30 0.8720586
528.40 0.8715532
528.50 0.8709467
528.60 0.8704413
528.70 0.8699358
528.80 0.8693293
528.90 0.8688239
529.00 0.8683185
529.10 0.867712
529.20 0.8672065
529.30 0.8667011
529.40 0.8660946
529.50 0.8655892
529.60 0.8650838
529.70 0.8644773
529.80 0.8639718
529.90 0.8634664
530.00 0.862961
530.10 0.8623545
530.20 0.861849
530.30 0.8613436
530.40 0.8607371
530.50 0.8602317
530.60 0.8597263
530.70 0.8592208
530.80 0.8586143
530.90 0.8581089
531.00 0.8576035
531.10 0.8570981
531.20 0.8564916
531.30 0.8559861
531.40 0.8554807
531.50 0.8549753
531.60 0.8543688
531.70 0.8538633
531.80 0.8533579
531.90 0.8528525
532.00 0.8523471
532.10 0.8517406
532.20 0.8512351
532.30 0.8507297
532.40 0.8502243
532.50 0.8497189
532.60 0.8491124
532.70 0.8486069
532.80 0.8481015
532.90 0.8475961
533.00 0.8470907
533.10 0.8464842
533.20 0.8459787
533.30 0.8454733
533.40 0.8449679
533.50 0.8444625
533.60 0.843957
533.70 0.8433505
533.80 0.8428451
533.90 0.8423397
534.00 0.8418343
534.10 0.8413288
534.20 0.8408234
534.30 0.840318
534.40 0.8397115
534.50 0.8392061
534.60 0.8387006
534.70 0.8381952
534.80 0.8376898
534.90 0.8371844
535.00 0.8366789
535.10 0.8360724
535.20 0.835567
535.30 0.8350616
535.40 0.8345561
535.50 0.8340507
535.60 0.8335453
535.70 0.8330399
535.80 0.8325345
535.90 0.832029
536.00 0.8315236
536.10 0.8310182
536.20 0.8304117
536.30 0.8299062
536.40 0.8294008
536.50 0.8288954
536.60 0.82839
536.70 0.8278846
536.80 0.8273791
536.90 0.8268737
537.00 0.8263683
537.10 0.8258629
537.20 0.8253574
537.30 0.824852
537.40 0.8243466
537.50 0.8238412
537.60 0.8233357
537.70 0.8228303
537.80 0.8223249
537.90 0.8218195
538.00 0.821314
538.10 0.8208086
538.20 0.8203032
538.30 0.8197978
538.40 0.8191913
538.50 0.8186858
538.60 0.8181804
538.70 0.817675
538.80 0.8171696
538.90 0.8166641
539.00 0.8162598
539.10 0.8157544
539.20 0.815249
539.30 0.8147435
539.40 0.8142381
539.50 0.8137327
539.60 0.8132273
539.70 0.8127218
539.80 0.8122164
539.90 0.811711
540.00 0.8112056
540.10 0.8107001
540.20 0.8101947
540.30 0.8096893
540.40 0.8091839
540.50 0.8086784
540.60 0.808173
540.70 0.8076676
540.80 0.8071622
540.90 0.8066567
541.00 0.8061513
541.10 0.8056459
541.20 0.8052416
541.30 0.8047361
541.40 0.8042307
541.50 0.8037253
541.60 0.8032199
541.70 0.8027144
541.80 0.8023101
541.90 0.8018047
542.00 0.8012992
542.10 0.8007938
542.20 0.8002884
542.30 0.799783
542.40 0.7992776
542.50 0.7988732
542.60 0.7983678
542.70 0.7978624
542.80 0.7973569
542.90 0.7968515
543.00 0.7963461
543.10 0.7958407
543.20 0.7953352
543.30 0.7949309
543.40 0.7944255
543.50 0.7939201
543.60 0.7934146
543.70 0.7929092
543.80 0.7924038
543.90 0.7919994
544.00 0.791494
544.10 0.7909886
544.20 0.7904832
544.30 0.7899778
544.40 0.7895734
544.50 0.789068
544.60 0.7885626
544.70 0.7880571
544.80 0.7876528
544.90 0.7871474
545.00 0.786642
545.10 0.7861365
545.20 0.7857322
545.30 0.7852268
545.40 0.7847213
545.50 0.7842159
545.60 0.7838116
545.70 0.7833062
545.80 0.7828007
545.90 0.7823964
546.00 0.781891
546.10 0.7813855
546.20 0.7809812
546.30 0.7805769
546.40 0.7800714
546.50 0.7796671
546.60 0.7792628
546.70 0.7788584
546.80 0.7784541
546.90 0.7780497
547.00 0.7775443
547.10 0.77714
547.20 0.7767356
547.30 0.7762302
547.40 0.7757248
547.50 0.7752194
547.60 0.774815
547.70 0.7743096
547.80 0.7738042
547.90 0.7733998
548.00 0.7728944
548.10 0.772389
548.20 0.7718836
548.30 0.7714792
548.40 0.7709738
548.50 0.7704684
548.60 0.770064
548.70 0.7695586
548.80 0.7690532
548.90 0.7685478
549.00 0.7681434
549.10 0.767638
549.20 0.7671326
549.30 0.7667282
549.40 0.7662228
549.50 0.7658185
549.60 0.7653131
549.70 0.7648076
549.80 0.7644033
549.90 0.7638979
550.00 0.7634935
550.10 0.7629881
550.20 0.7624827
550.30 0.7620783
550.40 0.7615729
550.50 0.7611686
550.60 0.7606632
550.70 0.7602588
550.80 0.7597534
550.90 0.759248
551.00 0.7588436
551.10 0.7583382
551.20 0.7579339
551.30 0.7574284
551.40 0.756923
551.50 0.7565187
551.60 0.7560133
551.70 0.7556089
551.80 0.7551035
551.90 0.7545981
552.00 0.7541937
552.10 0.7536883
552.20 0.753284
552.30 0.7527785
552.40 0.7523742
552.50 0.7518688
552.60 0.7514644
552.70 0.750959
552.80 0.7505547
552.90 0.7500493
553.00 0.7496449
553.10 0.7491395
553.20 0.7487351
553.30 0.7482297
553.40 0.7478254
553.50 0.74732
553.60 0.7469156
553.70 0.7464102
553.80 0.7460059
553.90 0.7455004
554.00 0.7450961
554.10 0.7445907
554.20 0.7441863
554.30 0.7436809
554.40 0.7432766
554.50 0.7427711
554.60 0.7423668
554.70 0.7418614
554.80 0.741457
554.90 0.7409516
555.00 0.7405473
555.10 0.7401429
555.20 0.7396375
555.30 0.7392332
555.40 0.7387278
555.50 0.7383234
555.60 0.737818
555.70 0.7374137
555.80 0.7369082
555.90 0.7365039
556.00 0.7360995
556.10 0.7355941
556.20 0.7351898
556.30 0.7346844
556.40 0.73428
556.50 0.7338757
556.60 0.7333703
556.70 0.7329659
556.80 0.7325616
556.90 0.7320562
557.00 0.7316518
557.10 0.7312475
557.20 0.7307421
557.30 0.7303377
557.40 0.7299334
557.50 0.729428
557.60 0.7290236
557.70 0.7286193
557.80 0.7281138
557.90 0.7277095
558.00 0.7272041
558.10 0.7267997
558.20 0.7263954
558.30 0.72589
558.40 0.7254856
558.50 0.7250813
558.60 0.7245759
558.70 0.7241715
558.80 0.7237672
558.90 0.7232618
559.00 0.7228574
559.10 0.7224531
559.20 0.7219477
559.30 0.7215433
559.40 0.721139
559.50 0.7206336
559.60 0.7202292
559.70 0.7198249
559.80 0.7194206
559.90 0.7189151
560.00 0.7185108
560.10 0.7181065
560.20 0.7177021
560.30 0.7171967
560.40 0.7167924
560.50 0.716388
560.60 0.7158826
560.70 0.7154782
560.80 0.7150739
560.90 0.7146696
561.00 0.7141641
561.10 0.7137598
561.20 0.7133555
561.30 0.71285
561.40 0.7124457
561.50 0.7120414
561.60 0.711637
561.70 0.7112327
561.80 0.7107273
561.90 0.7103229
562.00 0.7099186
562.10 0.7095142
562.20 0.7091099
562.30 0.7086045
562.40 0.7082001
562.50 0.7077958
562.60 0.7073915
562.70 0.7069871
562.80 0.7065828
562.90 0.7060774
563.00 0.705673
563.10 0.7052687
563.20 0.7048643
563.30 0.70446
563.40 0.7040557
563.50 0.7035502
563.60 0.7031459
563.70 0.7027416
563.80 0.7023372
563.90 0.7019329
564.00 0.7015285
564.10 0.7010231
564.20 0.7006188
564.30 0.7002144
564.40 0.6998101
564.50 0.6994058
564.60 0.6990014
564.70 0.6985971
564.80 0.6981927
564.90 0.6976873
565.00 0.697283
565.10 0.6968786
565.20 0.6964743
565.30 0.69607
565.40 0.6956656
565.50 0.6952613
565.60 0.6948569
565.70 0.6943515
565.80 0.6939472
565.90 0.6935428
566.00 0.6931385
566.10 0.6927342
566.20 0.6923298
566.30 0.6919255
566.40 0.6915212
566.50 0.6911168
566.60 0.6907125
566.70 0.6903081
566.80 0.6898027
566.90 0.6893984
567.00 0.688994
567.10 0.6885897
567.20 0.6881854
567.30 0.687781
567.40 0.6873767
567.50 0.6869723
567.60 0.686568
567.70 0.6861637
567.80 0.6857593
567.90 0.685355
568.00 0.6849506
568.10 0.6845463
568.20 0.684142
568.30 0.6837376
568.40 0.6833333
568.50 0.6829289
568.60 0.6825246
568.70 0.6821203
568.80 0.6817159
568.90 0.6813116
569.00 0.6809072
569.10 0.6805029
569.20 0.6800986
569.30 0.6796942
569.40 0.6792899
569.50 0.6788855
569.60 0.6784812
569.70 0.6780769
569.80 0.6776725
569.90 0.6772682
570.00 0.6768639
570.10 0.6764595
570.20 0.6760552
570.30 0.6756508
570.40 0.6752465
570.50 0.6748422
570.60 0.6744378
570.70 0.6740335
570.80 0.6736291
570.90 0.6733259
571.00 0.6729215
571.10 0.6725172
571.20 0.6721129
571.30 0.6717085
571.40 0.6713042
571.50 0.6708999
571.60 0.6704955
571.70 0.6700912
571.80 0.6696868
571.90 0.6692825
572.00 0.6688782
572.10 0.6684738
572.20 0.6680695
572.30 0.6676651
572.40 0.6672608
572.50 0.6669575
572.60 0.6665532
572.70 0.6661489
572.80 0.6657445
572.90 0.6653402
573.00 0.6649358
573.10 0.6645315
573.20 0.6642283
573.30 0.6638239
573.40 0.6634196
573.50 0.6630152
573.60 0.6626109
573.70 0.6622066
573.80 0.6618022
573.90 0.661499
574.00 0.6610946
574.10 0.6606903
574.20 0.6602859
574.30 0.6598816
574.40 0.6594773
574.50 0.659174
574.60 0.6587697
574.70 0.6583653
574.80 0.657961
574.90 0.6575567
575.00 0.6571523
575.10 0.6568491
575.20 0.6564447
575.30 0.6560404
575.40 0.655636
575.50 0.6552317
575.60 0.6548274
575.70 0.6545241
575.80 0.6541198
575.90 0.6537154
576.00 0.6533111
576.10 0.6529068
576.20 0.6526035
576.30 0.6521992
576.40 0.6517948
576.50 0.6513905
576.60 0.6509861
576.70 0.6506829
576.80 0.6502785
576.90 0.6498742
577.00 0.6494699
577.10 0.6491666
577.20 0.6487623
577.30 0.6483579
577.40 0.6479536
577.50 0.6475493
577.60 0.647246
577.70 0.6468417
577.80 0.6464373
577.90 0.646033
578.00 0.6457297
578.10 0.6453254
578.20 0.6449211
578.30 0.6446178
578.40 0.6442135
578.50 0.6438091
578.60 0.6434048
578.70 0.6431015
578.80 0.6426972
578.90 0.6422929
579.00 0.6419896
579.10 0.6415853
579.20 0.6411809
579.30 0.6407766
579.40 0.6404733
579.50 0.640069
579.60 0.6396646
579.70 0.6393614
579.80 0.6389571
579.90 0.6385527
580.00 0.6382495
580.10 0.6378451
580.20 0.6374408
580.30 0.6370364
580.40 0.6367332
580.50 0.6363288
580.60 0.6359245
580.70 0.6356213
580.80 0.6352169
580.90 0.6348126
581.00 0.6345093
581.10 0.634105
581.20 0.6337006
581.30 0.6333974
581.40 0.632993
581.50 0.6326898
581.60 0.6322855
581.70 0.6318811
581.80 0.6315779
581.90 0.6311735
582.00 0.6307692
582.10 0.6304659
582.20 0.6300616
582.30 0.6296572
582.40 0.629354
582.50 0.6289497
582.60 0.6286464
582.70 0.6282421
582.80 0.6278377
582.90 0.6275345
583.00 0.6271301
583.10 0.6268269
583.20 0.6264225
583.30 0.6260182
583.40 0.6257149
583.50 0.6253106
583.60 0.6250073
583.70 0.624603
583.80 0.6241987
583.90 0.6238954
584.00 0.6234911
584.10 0.6231878
584.20 0.6227835
584.30 0.6223791
584.40 0.6220759
584.50 0.6216716
584.60 0.6213683
584.70 0.620964
584.80 0.6206607
584.90 0.6202564
585.00 0.6199531
585.10 0.6195488
585.20 0.6191444
585.30 0.6188412
585.40 0.6184368
585.50 0.6181336
585.60 0.6177292
585.70 0.617426
585.80 0.6170216
585.90 0.6167184
586.00 0.6163141
586.10 0.6160108
586.20 0.6156065
586.30 0.6153032
586.40 0.6148989
586.50 0.6145956
586.60 0.6141913
586.70 0.613888
586.80 0.6134837
586.90 0.6131804
587.00 0.6127761
587.10 0.6124728
587.20 0.6120685
587.30 0.6117652
587.40 0.6113609
587.50 0.6110576
587.60 0.6106533
587.70 0.6103501
587.80 0.6099457
587.90 0.6096425
588.00 0.6092381
588.10 0.6089349
588.20 0.6085305
588.30 0.6082273
588.40 0.6078229
588.50 0.6075197
588.60 0.6071153
588.70 0.6068121
588.80 0.6064077
588.90 0.6061045
589.00 0.6058012
589.10 0.6053969
589.20 0.6050936
589.30 0.6046893
589.40 0.604386
589.50 0.6039817
589.60 0.6036785
589.70 0.6032741
589.80 0.6029709
589.90 0.6026676
590.00 0.6022633
590.10 0.60196
590.20 0.6015557
590.30 0.6012524
590.40 0.6008481
590.50 0.6005448
590.60 0.6002416
590.70 0.5998372
590.80 0.599534
590.90 0.5991296
591.00 0.5988264
591.10 0.5985231
591.20 0.5981188
591.30 0.5978155
591.40 0.5974112
591.50 0.5971079
591.60 0.5968047
591.70 0.5964003
591.80 0.5960971
591.90 0.5956928
592.00 0.5953895
592.10 0.5950862
592.20 0.5946819
592.30 0.5943787
592.40 0.5940754
592.50 0.5936711
592.60 0.5933678
592.70 0.5930646
592.80 0.5926602
592.90 0.592357
593.00 0.5919526
593.10 0.5916494
593.20 0.5913461
593.30 0.5909418
593.40 0.5906385
593.50 0.5903353
593.60 0.5899309
593.70 0.5896277
593.80 0.5893244
593.90 0.5889201
594.00 0.5886168
594.10 0.5883136
594.20 0.5879092
594.30 0.587606
594.40 0.5873027
594.50 0.5868984
594.60 0.5865951
594.70 0.5862919
594.80 0.5858875
594.90 0.5855843
595.00 0.585281
595.10 0.5849778
595.20 0.5845734
595.30 0.5842702
595.40 0.5839669
595.50 0.5835626
595.60 0.5832593
595.70 0.5829561
595.80 0.5826528
595.90 0.5822485
596.00 0.5819452
596.10 0.581642
596.20 0.5812376
596.30 0.5807322
596.40 0.5803279
596.50 0.5799235
596.60 0.5795192
596.70 0.5790138
596.80 0.5786094
596.90 0.5782051
597.00 0.5778007
597.10 0.5772953
597.20 0.5769921
597.30 0.5765877
597.40 0.5762845
597.50 0.5759812
597.60 0.575678
597.70 0.5752736
597.80 0.5749704
597.90 0.5746671
598.00 0.5743639
598.10 0.5739595
598.20 0.5736563
598.30 0.573353
598.40 0.5730498
598.50 0.5726454
598.60 0.5723422
598.70 0.5720389
598.80 0.5717357
598.90 0.5713313
599.00 0.5710281
599.10 0.5707248
599.20 0.5704216
599.30 0.5700172
599.40 0.569714
599.50 0.5694107
599.60 0.5691075
599.70 0.5687031
599.80 0.5683999
599.90 0.5680966
600.00 0.5677933
600.10 0.5674901
600.20 0.5670858
600.30 0.5667825
600.40 0.5664792
600.50 0.566176
600.60 0.5657717
600.70 0.5654684
600.80 0.5651651
600.90 0.5648619
601.00 0.5645586
601.10 0.5641543
601.20 0.563851
601.30 0.5635478
601.40 0.5632445
601.50 0.5629413
601.60 0.5625369
601.70 0.5622337
601.80 0.5619304
601.90 0.5616272
602.00 0.5613239
602.10 0.5610207
602.20 0.5606163
602.30 0.5603131
602.40 0.5600098
602.50 0.5597066
602.60 0.5594033
602.70 0.5591001
602.80 0.5586957
602.90 0.5583925
603.00 0.5580892
603.10 0.557786
603.20 0.5574827
603.30 0.5571794
603.40 0.5567751
603.50 0.5564719
603.60 0.5561686
603.70 0.5558653
603.80 0.5555621
603.90 0.5552588
604.00 0.5549556
604.10 0.5545512
604.20 0.554248
604.30 0.5539447
604.40 0.5536415
604.50 0.5533382
604.60 0.553035
604.70 0.5527317
604.80 0.5524285
604.90 0.5520241
605.00 0.5517209
605.10 0.5514176
605.20 0.5511144
605.30 0.5508111
605.40 0.5505078
605.50 0.5502046
605.60 0.5499013
605.70 0.549497
605.80 0.5491937
605.90 0.5488905
606.00 0.5485872
606.10 0.548284
606.20 0.5479807
606.30 0.5476775
606.40 0.5473742
606.50 0.547071
606.60 0.5467677
606.70 0.5463634
606.80 0.5460601
606.90 0.5457569
607.00 0.5454536
607.10 0.5451504
607.20 0.5448471
607.30 0.5445438
607.40 0.5442406
607.50 0.5439373
607.60 0.5436341
607.70 0.5433308
607.80 0.5430276
607.90 0.5427243
608.00 0.54232
608.10 0.5420167
608.20 0.5417135
608.30 0.5414102
608.40 0.541107
608.50 0.5408037
608.60 0.5405005
608.70 0.5401972
608.80 0.5398939
608.90 0.5395907
609.00 0.5392874
609.10 0.5389842
609.20 0.5386809
609.30 0.5383777
609.40 0.5380744
609.50 0.5377712
609.60 0.5374679
609.70 0.5371647
609.80 0.5368614
609.90 0.5365581
610.00 0.5362549
610.10 0.5359516
610.20 0.5356484
610.30 0.535244
610.40 0.5349408
610.50 0.5346375
610.60 0.5343343
610.70 0.534031
610.80 0.5337278
610.90 0.5334245
611.00 0.5331213
611.10 0.532818
611.20 0.5325148
611.30 0.5322115
611.40 0.5319082
611.50 0.531605
611.60 0.5313017
611.70 0.5309985
611.80 0.5306952
611.90 0.530392
612.00 0.5300887
612.10 0.5297855
612.20 0.5294822
612.30 0.529179
612.40 0.5288757
612.50 0.5285724
612.60 0.5282692
612.70 0.5279659
612.80 0.5276627
612.90 0.5273594
613.00 0.5270562
613.10 0.5267529
613.20 0.5264497
613.30 0.5261464
613.40 0.5258432
613.50 0.5255399
613.60 0.5253377
613.70 0.5250345
613.80 0.5247312
613.90 0.524428
614.00 0.5241247
614.10 0.5238215
614.20 0.5235182
614.30 0.523215
614.40 0.5229117
614.50 0.5226084
614.60 0.5223052
614.70 0.5220019
614.80 0.5216987
614.90 0.5213954
615.00 0.5210922
615.10 0.5207889
615.20 0.5204857
615.30 0.5201824
615.40 0.5198792
615.50 0.5195759
615.60 0.5192726
615.70 0.5189694
615.80 0.5186661
615.90 0.5183629
616.00 0.5181607
616.10 0.5178575
616.20 0.5175542
616.30 0.5172509
616.40 0.5169477
616.50 0.5166444
616.60 0.5163412
616.70 0.5160379
616.80 0.5157347
616.90 0.5154314
617.00 0.5151282
617.10 0.5148249
617.20 0.5145217
617.30 0.5142184
617.40 0.5139151
617.50 0.5136119
617.60 0.5134097
617.70 0.5131065
617.80 0.5128032
617.90 0.5125
618.00 0.5121967
618.10 0.5118935
618.20 0.5115902
618.30 0.5112869
618.40 0.5109837
618.50 0.5106804
618.60 0.5103772
618.70 0.5100739
618.80 0.5097707
618.90 0.5095685
619.00 0.5092652
619.10 0.508962
619.20 0.5086587
619.30 0.5083555
619.40 0.5080522
619.50 0.507749
619.60 0.5074457
619.70 0.5071425
619.80 0.5068392
619.90 0.506536
620.00 0.5063338
620.10 0.5060305
620.20 0.5057273
620.30 0.505424
620.40 0.5051208
620.50 0.5048175
620.60 0.5045143
620.70 0.504211
620.80 0.5039078
620.90 0.5036045
621.00 0.5034023
621.10 0.5030991
621.20 0.5027958
621.30 0.5024926
621.40 0.5021893
621.50 0.5018861
621.60 0.5015828
621.70 0.5012795
621.80 0.5009763
621.90 0.500673
622.00 0.5004709
622.10 0.5001676
622.20 0.4998644
622.30 0.4995611
622.40 0.4992579
622.50 0.4989546
622.60 0.4986513
622.70 0.4983481
622.80 0.4980448
622.90 0.4978427
623.00 0.4975394
623.10 0.4972362
623.20 0.4969329
623.30 0.4966296
623.40 0.4963264
623.50 0.4960231
623.60 0.4957199
623.70 0.4954166
623.80 0.4951134
623.90 0.4949112
624.00 0.494608
624.10 0.4943047
624.20 0.4940014
624.30 0.4936982
624.40 0.4933949
624.50 0.4930917
624.60 0.4927884
624.70 0.4924852
624.80 0.492283
624.90 0.4919797
625.00 0.4916765
625.10 0.4913732
625.20 0.49107
625.30 0.4907667
625.40 0.4904635
625.50 0.4901602
625.60 0.489857
625.70 0.4896548
625.80 0.4893515
625.90 0.4890483
626.00 0.488745
626.10 0.4884418
626.20 0.4881385
626.30 0.4878353
626.40 0.487532
626.50 0.4872288
626.60 0.4870266
626.70 0.4867233
626.80 0.4864201
626.90 0.4861168
627.00 0.4858136
627.10 0.4855103
627.20 0.4852071
627.30 0.4849038
627.40 0.4846006
627.50 0.4842973
627.60 0.4840951
627.70 0.4837919
627.80 0.4834886
627.90 0.4831854
628.00 0.4828821
628.10 0.4825789
628.20 0.4822756
628.30 0.4819723
628.40 0.4816691
628.50 0.4813658
628.60 0.4811637
628.70 0.4808604
628.80 0.4805572
628.90 0.4802539
629.00 0.4799507
629.10 0.4796474
629.20 0.4793441
629.30 0.4790409
629.40 0.4787376
629.50 0.4784344
629.60 0.4781311
629.70 0.4778279
629.80 0.4775246
629.90 0.4773224
630.00 0.4770192
630.10 0.4767159
630.20 0.4764127
630.30 0.4761094
630.40 0.4758062
630.50 0.4755029
630.60 0.4751997
630.70 0.4748964
630.80 0.4745932
630.90 0.4742899
631.00 0.4739867
631.10 0.4736834
631.20 0.4733801
631.30 0.4730769
631.40 0.4727736
631.50 0.4724704
631.60 0.4721671
631.70 0.4718639
631.80 0.4715606
631.90 0.4712574
632.00 0.4709541
632.10 0.4706509
632.20 0.4703476
632.30 0.4700443
632.40 0.4697411
632.50 0.4694378
632.60 0.4691346
632.70 0.4688313
632.80 0.4685281
632.90 0.4682248
633.00 0.4679216
633.10 0.4676183
633.20 0.4673151
633.30 0.4670118
633.40 0.4667085
633.50 0.4664053
633.60 0.466102
633.70 0.4657988
633.80 0.4654955
633.90 0.4650912
634.00 0.4647879
634.10 0.4644847
634.20 0.4641814
634.30 0.4638782
634.40 0.4635749
634.50 0.4632717
634.60 0.4629684
634.70 0.4625641
634.80 0.4622608
634.90 0.4619576
635.00 0.4616543
635.10 0.461351
635.20 0.4610478
635.30 0.4607445
635.40 0.4603402
635.50 0.4600369
635.60 0.4597337
635.70 0.4594304
635.80 0.4590261
635.90 0.4587228
636.00 0.4584196
636.10 0.4581163
636.20 0.457712
636.30 0.4574087
636.40 0.4571055
636.50 0.4567011
636.60 0.4563979
636.70 0.4560946
636.80 0.4556903
636.90 0.455387
637.00 0.4550838
637.10 0.4546795
637.20 0.4543762
637.30 0.4540729
637.40 0.4536686
637.50 0.4533653
637.60 0.452961
637.70 0.4526578
637.80 0.4522534
637.90 0.4519502
638.00 0.4515458
638.10 0.4512426
638.20 0.4509393
638.30 0.450535
638.40 0.4501306
638.50 0.4498274
638.60 0.449423
638.70 0.4491198
638.80 0.4487154
638.90 0.4483111
639.00 0.4480079
639.10 0.4476035
639.20 0.4473003
639.30 0.4468959
639.40 0.4464916
639.50 0.4460872
639.60 0.4456829
639.70 0.4453797
639.80 0.4449753
639.90 0.444571
640.00 0.4441666
640.10 0.4437623
640.20 0.443459
640.30 0.4430547
640.40 0.4426504
640.50 0.442246
640.60 0.4418417
640.70 0.4414373
640.80 0.441033
640.90 0.4406287
641.00 0.4402243
641.10 0.4397189
641.20 0.4393146
641.30 0.4389102
641.40 0.4385059
641.50 0.4381015
641.60 0.4375961
641.70 0.4371918
641.80 0.4367874
641.90 0.436282
642.00 0.4358777
642.10 0.4354733
642.20 0.435069
642.30 0.4345636
642.40 0.4341592
642.50 0.4336538
642.60 0.4331484
642.70 0.432744
642.80 0.4322386
642.90 0.4317332
643.00 0.4313289
643.10 0.4308234
643.20 0.430318
643.30 0.4299137
643.40 0.4293072
643.50 0.4288017
643.60 0.4282963
643.70 0.4277909
643.80 0.4272855
643.90 0.42678
644.00 0.4262746
644.10 0.4257692
644.20 0.4252638
644.30 0.4246573
644.40 0.4241518
644.50 0.4235453
644.60 0.4229388
644.70 0.4224334
644.80 0.4218269
644.90 0.4212204
645.00 0.420715
645.10 0.4201084
645.20 0.4195019
645.30 0.4189965
645.40 0.4182889
645.50 0.4176824
645.60 0.4170759
645.70 0.4163683
645.80 0.4157618
645.90 0.4151553
646.00 0.4144477
646.10 0.4138412
646.20 0.4132347
646.30 0.4125271
646.40 0.4118195
646.50 0.4111119
646.60 0.4104043
646.70 0.4096967
646.80 0.4089891
646.90 0.4081804
647.00 0.4074728
647.10 0.4067653
647.20 0.4060577
647.30 0.4053501
647.40 0.4044403
647.50 0.4036316
647.60 0.4028229
647.70 0.4020143
647.80 0.4011045
647.90 0.4002958
648.00 0.3994871
648.10 0.3986785
648.20 0.3978698
648.30 0.39696
648.40 0.3959492
648.50 0.3950394
648.60 0.3940286
648.70 0.3931188
648.80 0.392108
648.90 0.3910971
649.00 0.3901873
649.10 0.3891765
649.20 0.3881657
649.30 0.3872559
649.40 0.3860429
649.50 0.3849309
649.60 0.383819
649.70 0.3827071
649.80 0.3814941
649.90 0.3803821
650.00 0.3792702
650.10 0.3781583
650.20 0.3770463
650.30 0.3758333
650.40 0.3745192
650.50 0.373104
650.60 0.3717899
650.70 0.3704758
650.80 0.3691617
650.90 0.3677465
651.00 0.3664324
651.10 0.3651183
651.20 0.3638042
651.30 0.362389
651.40 0.3607717
651.50 0.3592554
651.60 0.357638
651.70 0.3560207
651.80 0.3545044
651.90 0.3528871
652.00 0.3513708
652.10 0.3497534
652.20 0.3481361
652.30 0.3465187
652.40 0.3446992
652.50 0.3427786
652.60 0.340959
652.70 0.3390384
652.80 0.3372189
652.90 0.3352983
653.00 0.3334788
653.10 0.3315582
653.20 0.3297386
653.30 0.327818
653.40 0.3255942
653.50 0.3232692
653.60 0.3210453
653.70 0.3188215
653.80 0.3165976
653.90 0.3143737
654.00 0.3121499
654.10 0.3098249
654.20 0.3076011
654.30 0.3053772
654.40 0.302749
654.50 0.3002219
654.60 0.2976948
654.70 0.2951676
654.80 0.2925394
654.90 0.289608
655.00 0.2866765
655.10 0.283745
655.20 0.2808136
655.30 0.277781
655.40 0.2745463
655.50 0.2712105
655.60 0.2675715
655.70 0.2636292
655.80 0.2590804
655.90 0.253925
656.00 0.2463437
656.10 0.2378525
656.20 0.2137944
656.30 0.1897362
656.40 0.2270365
656.50 0.2410873
656.60 0.2485675
656.70 0.2554413
656.80 0.2597879
656.90 0.2639324
657.00 0.2673693
657.10 0.2707051
657.20 0.2737377
657.30 0.2766691
657.40 0.2792973
657.50 0.2820266
657.60 0.2846548
657.70 0.287283
657.80 0.2899112
657.90 0.2921351
658.00 0.294359
658.10 0.2966839
658.20 0.2989078
658.30 0.3011316
658.40 0.3030522
658.50 0.3049729
658.60 0.3068935
658.70 0.3088141
658.80 0.3107347
658.90 0.3125542
659.00 0.3144748
659.10 0.3163954
659.20 0.3183161
659.30 0.3201356
659.40 0.3216518
659.50 0.3231681
659.60 0.3246844
659.70 0.3262007
659.80 0.3277169
659.90 0.3292332
660.00 0.3306484
660.10 0.3321647
660.20 0.3336809
660.30 0.3350961
660.40 0.3363091
660.50 0.3375222
660.60 0.3387352
660.70 0.3398471
660.80 0.3410601
660.90 0.3422731
661.00 0.3434862
661.10 0.3445981
661.20 0.3458111
661.30 0.3469231
661.40 0.3478328
661.50 0.3487426
661.60 0.3497534
661.70 0.3506632
661.80 0.351573
661.90 0.3524827
662.00 0.3533925
662.10 0.3543022
662.20 0.355212
662.30 0.3561218
662.40 0.3568294
662.50 0.357537
662.60 0.3582445
662.70 0.3589521
662.80 0.3595587
662.90 0.3602662
663.00 0.3609738
663.10 0.3616814
663.20 0.362389
663.30 0.3629955
663.40 0.363602
663.50 0.3641075
663.60 0.3646129
663.70 0.3651183
663.80 0.3656237
663.90 0.3662302
664.00 0.3667357
664.10 0.3672411
664.20 0.3677465
664.30 0.3682519
664.40 0.3686563
664.50 0.3689595
664.60 0.3693639
664.70 0.3697682
664.80 0.3700715
664.90 0.3704758
665.00 0.3708801
665.10 0.3711834
665.20 0.3715877
665.30 0.3719921
665.40 0.3721943
665.50 0.3724975
665.60 0.3726997
665.70 0.3730029
665.80 0.3732051
665.90 0.3735084
666.00 0.3737105
666.10 0.3740138
666.20 0.374317
666.30 0.3745192
666.40 0.3747214
666.50 0.3748225
666.60 0.3750246
666.70 0.3752268
666.80 0.3753279
666.90 0.3755301
667.00 0.3757322
667.10 0.3759344
667.20 0.3760355
667.30 0.3762376
667.40 0.3763387
667.50 0.3764398
667.60 0.3765409
667.70 0.376642
667.80 0.3767431
667.90 0.3768442
668.00 0.3769452
668.10 0.3770463
668.20 0.3771474
668.30 0.3772485
668.40 0.3772485
668.50 0.3773496
668.60 0.3773496
668.70 0.3774507
668.80 0.3774507
668.90 0.3775517
669.00 0.3775517
669.10 0.3776528
669.20 0.3776528
669.30 0.3776528
669.40 0.3777539
669.50 0.3777539
669.60 0.3777539
669.70 0.3777539
669.80 0.3777539
669.90 0.3777539
670.00 0.3777539
670.10 0.3777539
670.20 0.3777539
670.30 0.3777539
670.40 0.3776528
670.50 0.3776528
670.60 0.3776528
670.70 0.3775517
670.80 0.3775517
670.90 0.3775517
671.00 0.3775517
671.10 0.3774507
671.20 0.3774507
671.30 0.3774507
671.40 0.3773496
671.50 0.3772485
671.60 0.3772485
671.70 0.3771474
671.80 0.3771474
671.90 0.3770463
672.00 0.3769452
672.10 0.3769452
672.20 0.3768442
672.30 0.3768442
672.40 0.3767431
672.50 0.376642
672.60 0.3765409
672.70 0.3764398
672.80 0.3764398
672.90 0.3763387
673.00 0.3762376
673.10 0.3761366
673.20 0.3760355
673.30 0.3760355
673.40 0.3759344
673.50 0.3758333
673.60 0.3757322
673.70 0.3756311
673.80 0.3755301
673.90 0.375429
674.00 0.3753279
674.10 0.3752268
674.20 0.3751257
674.30 0.3750246
674.40 0.3749235
674.50 0.3748225
674.60 0.3747214
674.70 0.3745192
674.80 0.3744181
674.90 0.374317
675.00 0.3742159
675.10 0.3741149
675.20 0.3740138
675.30 0.3739127
675.40 0.3737105
675.50 0.3736094
675.60 0.3735084
675.70 0.3734073
675.80 0.3733062
675.90 0.373104
676.00 0.3730029
676.10 0.3729018
676.20 0.3728008
676.30 0.3725986
676.40 0.3724975
676.50 0.3723964
676.60 0.3721943
676.70 0.3720932
676.80 0.3719921
676.90 0.371891
677.00 0.3716888
677.10 0.3715877
677.20 0.3714867
677.30 0.3712845
677.40 0.3711834
677.50 0.3709812
677.60 0.3708801
677.70 0.3707791
677.80 0.3705769
677.90 0.3704758
678.00 0.3703747
678.10 0.3701726
678.20 0.3700715
678.30 0.3698693
678.40 0.3697682
678.50 0.369566
678.60 0.369465
678.70 0.3693639
678.80 0.3691617
678.90 0.3690606
679.00 0.3688585
679.10 0.3687574
679.20 0.3685552
679.30 0.3684541
679.40 0.3682519
679.50 0.3681509
679.60 0.3679487
679.70 0.3678476
679.80 0.3676454
679.90 0.3675444
680.00 0.3673422
680.10 0.3672411
680.20 0.3670389
680.30 0.3669378
680.40 0.3667357
680.50 0.3666346
680.60 0.3664324
680.70 0.3663313
680.80 0.3661292
680.90 0.3660281
681.00 0.3658259
681.10 0.3657248
681.20 0.3655227
681.30 0.3654216
681.40 0.3652194
681.50 0.3650172
681.60 0.3649161
681.70 0.364714
681.80 0.3646129
681.90 0.3644107
682.00 0.3643096
682.10 0.3641075
682.20 0.3639053
682.30 0.3638042
682.40 0.363602
682.50 0.363501
682.60 0.3632988
682.70 0.3631977
682.80 0.3629955
682.90 0.3627934
683.00 0.3626923
683.10 0.3624901
683.20 0.362389
683.30 0.3621869
683.40 0.3619847
683.50 0.3618836
683.60 0.3616814
683.70 0.3615803
683.80 0.3613782
683.90 0.361176
684.00 0.3610749
684.10 0.3608728
684.20 0.3607717
684.30 0.3605695
684.40 0.3603673
684.50 0.3602662
684.60 0.3600641
684.70 0.359963
684.80 0.3597608
684.90 0.3595587
685.00 0.3594576
685.10 0.3592554
685.20 0.3591543
685.30 0.3589521
685.40 0.35875
685.50 0.3586489
685.60 0.3584467
685.70 0.3582445
685.80 0.3581435
685.90 0.3579413
686.00 0.3578402
686.10 0.357638
686.20 0.3574359
686.30 0.3573348
686.40 0.3571326
686.50 0.3569304
686.60 0.3568294
686.70 0.3566272
686.80 0.356425
686.90 0.3563239
687.00 0.3561218
687.10 0.3560207
687.20 0.3558185
687.30 0.3556163
687.40 0.3555153
687.50 0.3553131
687.60 0.3551109
687.70 0.3550098
687.80 0.3548077
687.90 0.3547066
688.00 0.3545044
688.10 0.3543022
688.20 0.3542012
688.30 0.353999
688.40 0.3537968
688.50 0.3536957
688.60 0.3534936
688.70 0.3532914
688.80 0.3531903
688.90 0.3529881
689.00 0.3528871
689.10 0.3526849
689.20 0.3524827
689.30 0.3523816
689.40 0.3521795
689.50 0.3519773
689.60 0.3518762
689.70 0.351674
689.80 0.3514719
689.90 0.3513708
690.00 0.3511686
690.10 0.3509664
690.20 0.3508654
690.30 0.3506632
690.40 0.350461
690.50 0.3503599
690.60 0.3501578
690.70 0.3499556
690.80 0.3498545
690.90 0.3496523
691.00 0.3494502
691.10 0.3493491
691.20 0.3491469
691.30 0.3489447
691.40 0.3488437
691.50 0.3486415
691.60 0.3484393
691.70 0.3483382
691.80 0.3481361
691.90 0.348035
692.00 0.3478328
692.10 0.3476306
692.20 0.3475296
692.30 0.3473274
692.40 0.3471252
692.50 0.3470241
692.60 0.346822
692.70 0.3466198
692.80 0.3465187
692.90 0.3463165
693.00 0.3461144
693.10 0.3460133
693.20 0.3458111
693.30 0.34571
693.40 0.3455079
693.50 0.3453057
693.60 0.3452046
693.70 0.3450024
693.80 0.3448003
693.90 0.3446992
694.00 0.344497
694.10 0.3442948
694.20 0.3441938
694.30 0.3439916
694.40 0.3438905
694.50 0.3436883
694.60 0.3434862
694.70 0.3433851
694.80 0.3431829
694.90 0.3429807
695.00 0.3428797
695.10 0.3426775
695.20 0.3425764
695.30 0.3423742
695.40 0.3421721
695.50 0.342071
695.60 0.3418688
695.70 0.3417677
695.80 0.3415656
695.90 0.3413634
696.00 0.3412623
696.10 0.3410601
696.20 0.340858
696.30 0.3407569
696.40 0.3405547
696.50 0.3404536
696.60 0.3402515
696.70 0.3400493
696.80 0.3399482
696.90 0.339746
697.00 0.3396449
697.10 0.3394428
697.20 0.3392406
697.30 0.3391395
697.40 0.3389374
697.50 0.3388363
697.60 0.3386341
697.70 0.3384319
697.80 0.3383308
697.90 0.3381287
698.00 0.3380276
698.10 0.3378254
698.20 0.3376232
698.30 0.3375222
698.40 0.33732
698.50 0.3372189
698.60 0.3370167
698.70 0.3368146
698.80 0.3367135
698.90 0.3365113
699.00 0.3364102
699.10 0.3362081
699.20 0.3360059
699.30 0.3359048
699.40 0.3357026
699.50 0.3356016
699.60 0.3353994
699.70 0.3351972
699.80 0.3350961
699.90 0.334894
700.00 0.3347929
700.10 0.3345907
700.20 0.3344896
700.30 0.3342874
700.40 0.3341864
700.50 0.3339842
700.60 0.3338831
700.70 0.3336809
700.80 0.3335799
700.90 0.3333777
701.00 0.3332766
701.10 0.3330744
701.20 0.3329733
701.30 0.3327712
701.40 0.3326701
701.50 0.3324679
701.60 0.3323668
701.70 0.3321647
701.80 0.3320636
701.90 0.3318614
702.00 0.3317603
702.10 0.3315582
702.20 0.3314571
702.30 0.3312549
702.40 0.3311538
702.50 0.3309517
702.60 0.3308506
702.70 0.3306484
702.80 0.3305473
702.90 0.3303451
703.00 0.3302441
703.10 0.3300419
703.20 0.3299408
703.30 0.3297386
703.40 0.3296375
703.50 0.3294354
703.60 0.3293343
703.70 0.3291321
703.80 0.329031
703.90 0.3288289
704.00 0.3287278
704.10 0.3285256
704.20 0.3284245
704.30 0.3282224
704.40 0.3281213
704.50 0.3279191
704.60 0.327818
704.70 0.3276159
704.80 0.3275148
704.90 0.3273126
705.00 0.3272115
705.10 0.3270093
705.20 0.3269083
705.30 0.3267061
705.40 0.326605
705.50 0.3264028
705.60 0.3262007
705.70 0.3260996
705.80 0.3258974
705.90 0.3257963
706.00 0.3255942
706.10 0.3254931
706.20 0.3252909
706.30 0.3250887
706.40 0.3249876
706.50 0.3247855
706.60 0.3246844
706.70 0.3244822
706.80 0.3243811
706.90 0.324179
707.00 0.3240779
707.10 0.3238757
707.20 0.3237746
707.30 0.3235725
707.40 0.3233703
707.50 0.3232692
707.60 0.323067
707.70 0.322966
707.80 0.3227638
707.90 0.3226627
708.00 0.3224605
708.10 0.3223594
708.20 0.3221573
708.30 0.3220562
708.40 0.321854
708.50 0.3216518
708.60 0.3215508
708.70 0.3213486
708.80 0.3212475
708.90 0.3210453
709.00 0.3209443
709.10 0.3207421
709.20 0.320641
709.30 0.3204388
709.40 0.3203377
709.50 0.3201356
709.60 0.3200345
709.70 0.3198323
709.80 0.3196302
709.90 0.3195291
710.00 0.3193269
710.10 0.3192258
710.20 0.3190236
710.30 0.3189226
710.40 0.3187204
710.50 0.3186193
710.60 0.3184171
710.70 0.3183161
710.80 0.3181139
710.90 0.3180128
711.00 0.3178106
711.10 0.3177095
711.20 0.3175074
711.30 0.3174063
711.40 0.3172041
711.50 0.317103
711.60 0.3169009
711.70 0.3167998
711.80 0.3165976
711.90 0.3164965
712.00 0.3162944
712.10 0.3161933
712.20 0.3159911
712.30 0.31589
712.40 0.3156878
712.50 0.3155868
712.60 0.3153846
712.70 0.3152835
712.80 0.3150813
712.90 0.3149803
713.00 0.3147781
713.10 0.314677
713.20 0.3144748
713.30 0.3143737
713.40 0.3141716
713.50 0.3140705
713.60 0.3138683
713.70 0.3137672
713.80 0.3135651
713.90 0.313464
714.00 0.3132618
714.10 0.3131607
714.20 0.3129586
714.30 0.3128575
714.40 0.3126553
714.50 0.3125542
714.60 0.312352
714.70 0.312251
714.80 0.3120488
714.90 0.3119477
715.00 0.3117455
715.10 0.3116445
715.20 0.3114423
715.30 0.3113412
715.40 0.311139
715.50 0.3110379
715.60 0.3108358
715.70 0.3107347
715.80 0.3106336
715.90 0.3104314
716.00 0.3103304
716.10 0.3101282
716.20 0.3100271
716.30 0.3098249
716.40 0.3097238
716.50 0.3096228
716.60 0.3094206
716.70 0.3093195
716.80 0.3091173
716.90 0.3090162
717.00 0.3088141
717.10 0.308713
717.20 0.3086119
717.30 0.3084097
717.40 0.3083087
717.50 0.3081065
717.60 0.3080054
717.70 0.3078032
717.80 0.3077021
717.90 0.3076011
718.00 0.3073989
718.10 0.3072978
718.20 0.3070956
718.30 0.3069946
718.40 0.3067924
718.50 0.3066913
718.60 0.3065902
718.70 0.306388
718.80 0.306287
718.90 0.3060848
719.00 0.3059837
719.10 0.3057815
719.20 0.3056804
719.30 0.3055794
719.40 0.3053772
719.50 0.3052761
719.60 0.3050739
719.70 0.3049729
719.80 0.3048718
719.90 0.3046696
720.00 0.3045685
720.10 0.3043663
720.20 0.3042653
720.30 0.3040631
720.40 0.303962
720.50 0.3038609
720.60 0.3036588
720.70 0.3035577
720.80 0.3033555
720.90 0.3032544
721.00 0.3030522
721.10 0.3029512
721.20 0.302749
721.30 0.3026479
721.40 0.3025468
721.50 0.3023447
721.60 0.3022436
721.70 0.3020414
721.80 0.3019403
721.90 0.3017381
722.00 0.3016371
722.10 0.301536
722.20 0.3013338
722.30 0.3012327
722.40 0.3010305
722.50 0.3009295
722.60 0.3007273
722.70 0.3006262
722.80 0.300424
722.90 0.300323
723.00 0.3002219
723.10 0.3000197
723.20 0.2999186
723.30 0.2997164
723.40 0.2996154
723.50 0.2994132
723.60 0.2993121
723.70 0.299211
723.80 0.2990089
723.90 0.2989078
724.00 0.2987056
724.10 0.2986045
724.20 0.2985034
724.30 0.2983013
724.40 0.2982002
724.50 0.297998
724.60 0.2978969
724.70 0.2976948
724.80 0.2975937
724.90 0.2974926
725.00 0.2972904
725.10 0.2971893
725.20 0.2969872
725.30 0.2968861
725.40 0.296785
725.50 0.2965828
725.60 0.2964817
725.70 0.2962796
725.80 0.2961785
725.90 0.2960774
726.00 0.2958752
726.10 0.2957741
726.20 0.295572
726.30 0.2954709
726.40 0.2953698
726.50 0.2951676
726.60 0.2950665
726.70 0.2948644
726.80 0.2947633
726.90 0.2946622
727.00 0.29446
727.10 0.294359
727.20 0.2941568
727.30 0.2940557
727.40 0.2939546
727.50 0.2937524
727.60 0.2936514
727.70 0.2935503
727.80 0.2933481
727.90 0.293247
728.00 0.2930448
728.10 0.2929438
728.20 0.2928427
728.30 0.2926405
728.40 0.2925394
728.50 0.2923373
728.60 0.2922362
728.70 0.2921351
728.80 0.2919329
728.90 0.2918318
729.00 0.2917307
729.10 0.2915286
729.20 0.2914275
729.30 0.2912253
729.40 0.2911242
729.50 0.2910232
729.60 0.290821
729.70 0.2907199
729.80 0.2906188
729.90 0.2904166
730.00 0.2903156
730.10 0.2901134
730.20 0.2900123
730.30 0.2899112
730.40 0.2897091
730.50 0.289608
730.60 0.2895069
730.70 0.2893047
730.80 0.2892036
730.90 0.2891025
731.00 0.2889004
731.10 0.2887993
731.20 0.2886982
731.30 0.288496
731.40 0.2883949
731.50 0.2882939
731.60 0.2880917
731.70 0.2879906
731.80 0.2877884
731.90 0.2876874
732.00 0.2875863
732.10 0.2873841
732.20 0.287283
732.30 0.2871819
732.40 0.2869798
732.50 0.2868787
732.60 0.2867776
732.70 0.2865754
732.80 0.2864743
732.90 0.2863733
733.00 0.2861711
733.10 0.28607
733.20 0.2859689
733.30 0.2857667
733.40 0.2856657
733.50 0.2855646
733.60 0.2853624
733.70 0.2852613
733.80 0.2851602
733.90 0.2849581
734.00 0.284857
734.10 0.2847559
734.20 0.2845537
734.30 0.2844526
734.40 0.2843516
734.50 0.2841494
734.60 0.2840483
734.70 0.2839472
734.80 0.283745
734.90 0.283644
735.00 0.2835429
735.10 0.2833407
735.20 0.2832396
735.30 0.2831385
735.40 0.2829364
735.50 0.2828353
735.60 0.2827342
735.70 0.282532
735.80 0.2824309
735.90 0.2823299
736.00 0.2821277
736.10 0.2820266
736.20 0.2819255
736.30 0.2817234
736.40 0.2816223
736.50 0.2815212
736.60 0.2814201
736.70 0.2812179
736.80 0.2811168
736.90 0.2810158
737.00 0.2808136
737.10 0.2807125
737.20 0.2806114
737.30 0.2804092
737.40 0.2803082
737.50 0.2802071
737.60 0.2800049
737.70 0.2799038
737.80 0.2798027
737.90 0.2796006
738.00 0.2794995
738.10 0.2793984
738.20 0.2792973
738.30 0.2790951
738.40 0.2789941
738.50 0.278893
738.60 0.2786908
738.70 0.2785897
738.80 0.2784886
738.90 0.2782865
739.00 0.2781854
739.10 0.2780843
739.20 0.2778821
739.30 0.277781
739.40 0.27768
739.50 0.2775789
739.60 0.2773767
739.70 0.2772756
739.80 0.2771745
739.90 0.2769724
740.00 0.2768713
740.10 0.2767702
740.20 0.2766691
740.30 0.2764669
740.40 0.2763659
740.50 0.2762648
740.60 0.2760626
740.70 0.2759615
740.80 0.2758604
740.90 0.2757593
741.00 0.2755572
741.10 0.2754561
741.20 0.275355
741.30 0.2751528
741.40 0.2750518
741.50 0.2749507
741.60 0.2748496
741.70 0.2746474
741.80 0.2745463
741.90 0.2744452
742.00 0.2743442
742.10 0.274142
742.20 0.2740409
742.30 0.2739398
742.40 0.2738387
742.50 0.2736366
742.60 0.2735355
742.70 0.2734344
742.80 0.2732322
742.90 0.2731311
743.00 0.2730301
743.10 0.272929
743.20 0.2727268
743.30 0.2726257
743.40 0.2725246
743.50 0.2724235
743.60 0.2722214
743.70 0.2721203
743.80 0.2720192
743.90 0.2719181
744.00 0.271716
744.10 0.2716149
744.20 0.2715138
744.30 0.2714127
744.40 0.2712105
744.50 0.2711094
744.60 0.2710084
744.70 0.2709073
744.80 0.2707051
744.90 0.270604
745.00 0.2705029
745.10 0.2704019
745.20 0.2701997
745.30 0.2700986
745.40 0.2699975
745.50 0.2698964
745.60 0.2696943
745.70 0.2695932
745.80 0.2694921
745.90 0.269391
746.00 0.2691888
746.10 0.2690878
746.20 0.2689867
746.30 0.2688856
746.40 0.2686834
746.50 0.2685823
746.60 0.2684812
746.70 0.2683802
746.80 0.268178
746.90 0.2680769
747.00 0.2679758
747.10 0.2678747
747.20 0.2676726
747.30 0.2675715
747.40 0.2674704
747.50 0.2673693
747.60 0.2671671
747.70 0.2670661
747.80 0.266965
747.90 0.2668639
748.00 0.2666617
748.10 0.2665606
748.20 0.2664595
748.30 0.2663585
748.40 0.2662574
748.50 0.2660552
748.60 0.2659541
748.70 0.265853
748.80 0.265752
748.90 0.2655498
749.00 0.2654487
749.10 0.2653476
749.20 0.2652465
749.30 0.2650444
749.40 0.2649433
749.50 0.2648422
749.60 0.2647411
749.70 0.26464
749.80 0.2644378
749.90 0.2643368
750.00 0.2642357
750.10 0.2641346
750.20 0.2639324
750.30 0.2638313
750.40 0.2637303
750.50 0.2636292
750.60 0.2635281
750.70 0.2633259
750.80 0.2632248
750.90 0.2631237
751.00 0.2630227
751.10 0.2629216
751.20 0.2627194
751.30 0.2626183
751.40 0.2625172
751.50 0.2624162
751.60 0.2623151
751.70 0.2621129
751.80 0.2620118
751.90 0.2619107
752.00 0.2618096
752.10 0.2617086
752.20 0.2615064
752.30 0.2614053
752.40 0.2613042
752.50 0.2612031
752.60 0.2611021
752.70 0.261001
752.80 0.2607988
752.90 0.2606977
753.00 0.2605966
753.10 0.2604955
753.20 0.2603945
753.30 0.2601923
753.40 0.2600912
753.50 0.2599901
753.60 0.259889
753.70 0.2597879
753.80 0.2595858
753.90 0.2594847
754.00 0.2593836
754.10 0.2592825
754.20 0.2591814
754.30 0.2590804
754.40 0.2588782
754.50 0.2587771
754.60 0.258676
754.70 0.2585749
754.80 0.2584738
754.90 0.2582717
755.00 0.2581706
755.10 0.2580695
755.20 0.2579684
755.30 0.2578673
755.40 0.2577663
755.50 0.2575641
755.60 0.257463
755.70 0.2573619
755.80 0.2572608
755.90 0.2571597
756.00 0.2569576
756.10 0.2568565
756.20 0.2567554
756.30 0.2566543
756.40 0.2565532
756.50 0.2564522
756.60 0.25625
756.70 0.2561489
756.80 0.2560478
756.90 0.2559467
757.00 0.2558456
757.10 0.2557446
757.20 0.2555424
757.30 0.2554413
757.40 0.2553402
757.50 0.2552391
757.60 0.255138
757.70 0.255037
757.80 0.2548348
757.90 0.2547337
758.00 0.2546326
758.10 0.2545315
758.20 0.2544305
758.30 0.2543294
758.40 0.2541272
758.50 0.2540261
758.60 0.253925
758.70 0.2538239
758.80 0.2537229
758.90 0.2536218
759.00 0.2534196
759.10 0.2533185
759.20 0.2532174
759.30 0.2531164
759.40 0.2530153
759.50 0.2529142
759.60 0.2528131
759.70 0.2526109
759.80 0.2525098
759.90 0.2524088
760.00 0.2523077
760.10 0.2522066
760.20 0.2521055
760.30 0.2519033
760.40 0.2518022
760.50 0.2517012
760.60 0.2516001
760.70 0.251499
760.80 0.2513979
760.90 0.2512968
761.00 0.2511957
761.10 0.2509936
761.20 0.2508925
761.30 0.2507914
761.40 0.2506903
761.50 0.2505892
761.60 0.2504881
761.70 0.2503871
761.80 0.2501849
761.90 0.2500838
762.00 0.2499827
762.10 0.2498816
762.20 0.2497806
762.30 0.2496795
762.40 0.2495784
762.50 0.2494773
762.60 0.2492751
762.70 0.249174
762.80 0.249073
762.90 0.2489719
763.00 0.2488708
763.10 0.2487697
763.20 0.2486686
763.30 0.2485675
763.40 0.2483654
763.50 0.2482643
763.60 0.2481632
763.70 0.2480621
763.80 0.247961
763.90 0.2478599
764.00 0.2477589
764.10 0.2476578
764.20 0.2475567
764.30 0.2473545
764.40 0.2472534
764.50 0.2471523
764.60 0.2470513
764.70 0.2469502
764.80 0.2468491
764.90 0.246748
765.00 0.2466469
765.10 0.2464448
765.20 0.2463437
765.30 0.2462426
765.40 0.2461415
765.50 0.2460404
765.60 0.2459393
765.70 0.2458382
765.80 0.2457372
765.90 0.2456361
766.00 0.2454339
766.10 0.2453328
766.20 0.2452317
766.30 0.2451307
766.40 0.2450296
766.50 0.2449285
766.60 0.2448274
766.70 0.2447263
766.80 0.2446252
766.90 0.2445241
767.00 0.244322
767.10 0.2442209
767.20 0.2441198
767.30 0.2440187
767.40 0.2439176
767.50 0.2438165
767.60 0.2437155
767.70 0.2436144
767.80 0.2435133
767.90 0.2434122
768.00 0.24321
768.10 0.243109
768.20 0.2430079
768.30 0.2429068
768.40 0.2428057
768.50 0.2427046
768.60 0.2426035
768.70 0.2425024
768.80 0.2424014
768.90 0.2423003
769.00 0.2420981
769.10 0.241997
769.20 0.2418959
769.30 0.2417949
769.40 0.2416938
769.50 0.2415927
769.60 0.2414916
769.70 0.2413905
769.80 0.2412894
769.90 0.2411883
770.00 0.2410873
770.10 0.2408851
770.20 0.240784
770.30 0.2406829
770.40 0.2405818
770.50 0.2404808
770.60 0.2403797
770.70 0.2402786
770.80 0.2401775
770.90 0.2400764
771.00 0.2399753
771.10 0.2398742
771.20 0.2397732
771.30 0.2396721
771.40 0.239571
771.50 0.2393688
771.60 0.2392677
771.70 0.2391666
771.80 0.2390656
771.90 0.2389645
772.00 0.2388634
772.10 0.2387623
772.20 0.2386612
772.30 0.2385601
772.40 0.2384591
772.50 0.238358
772.60 0.2382569
772.70 0.2381558
772.80 0.2380547
772.90 0.2379536
773.00 0.2377515
773.10 0.2376504
773.20 0.2375493
773.30 0.2374482
773.40 0.2373471
773.50 0.237246
773.60 0.237145
773.70 0.2370439
773.80 0.2369428
773.90 0.2368417
774.00 0.2367406
774.10 0.2366395
774.20 0.2365384
774.30 0.2364374
774.40 0.2363363
774.50 0.2362352
774.60 0.2361341
774.70 0.2359319
774.80 0.2358308
774.90 0.2357298
775.00 0.2356287
775.10 0.2355276
775.20 0.2354265
775.30 0.2353254
775.40 0.2352243
775.50 0.2351233
775.60 0.2350222
775.70 0.2349211
775.80 0.23482
775.90 0.2347189
776.00 0.2346178
776.10 0.2345167
776.20 0.2344157
776.30 0.2343146
776.40 0.2342135
776.50 0.2341124
776.60 0.2340113
776.70 0.2339102
776.80 0.2337081
776.90 0.233607
777.00 0.2335059
777.10 0.2334048
777.20 0.2333037
777.30 0.2332026
777.40 0.2331016
777.50 0.2330005
777.60 0.2328994
777.70 0.2327983
777.80 0.2326972
777.90 0.2325961
778.00 0.2324951
778.10 0.232394
778.20 0.2322929
778.30 0.2321918
778.40 0.2320907
778.50 0.2319896
778.60 0.2318885
778.70 0.2317875
778.80 0.2316864
778.90 0.2315853
779.00 0.2314842
779.10 0.2313831
779.20 0.231282
779.30 0.2311809
779.40 0.2309788
779.50 0.2308777
779.60 0.2307766
779.70 0.2306755
779.80 0.2305744
779.90 0.2304734
780.00 0.2303723
780.10 0.2302712
780.20 0.2301701
780.30 0.230069
780.40 0.2299679
780.50 0.2298668
780.60 0.2297658
780.70 0.2296647
780.80 0.2295636
780.90 0.2294625
781.00 0.2293614
781.10 0.2292603
781.20 0.2291593
781.30 0.2290582
781.40 0.2289571
781.50 0.228856
781.60 0.2287549
781.70 0.2286538
781.80 0.2285527
781.90 0.2284517
782.00 0.2283506
782.10 0.2282495
782.20 0.2281484
782.30 0.2280473
782.40 0.2279462
782.50 0.2278452
782.60 0.2277441
782.70 0.227643
782.80 0.2275419
782.90 0.2274408
783.00 0.2273397
783.10 0.2272386
783.20 0.2271376
783.30 0.2270365
783.40 0.2269354
783.50 0.2268343
783.60 0.2267332
783.70 0.2266321
783.80 0.226531
783.90 0.22643
784.00 0.2263289
784.10 0.2262278
784.20 0.2261267
784.30 0.2260256
784.40 0.2259245
784.50 0.2258235
784.60 0.2257224
784.70 0.2256213
784.80 0.2255202
784.90 0.2254191
785.00 0.225318
785.10 0.2252169
785.20 0.2251159
785.30 0.2250148
785.40 0.2249137
785.50 0.2248126
785.60 0.2247115
785.70 0.2246104
785.80 0.2245094
785.90 0.2244083
786.00 0.2243072
786.10 0.2242061
786.20 0.224105
786.30 0.2240039
786.40 0.2239028
786.50 0.2238018
786.60 0.2237007
786.70 0.2235996
786.80 0.2234985
786.90 0.2233974
787.00 0.2232963
787.10 0.2231952
787.20 0.2230942
787.30 0.2229931
787.40 0.222892
787.50 0.2227909
787.60 0.2226898
787.70 0.2225887
787.80 0.2224877
787.90 0.2223866
788.00 0.2222855
788.10 0.2221844
788.20 0.2220833
788.30 0.2219822
788.40 0.2218811
788.50 0.2218811
788.60 0.2217801
788.70 0.221679
788.80 0.2215779
788.90 0.2214768
789.00 0.2213757
789.10 0.2212746
789.20 0.2211736
789.30 0.2210725
789.40 0.2209714
789.50 0.2208703
789.60 0.2207692
789.70 0.2206681
789.80 0.220567
789.90 0.220466
790.00 0.2203649
790.10 0.2202638
790.20 0.2201627
790.30 0.2200616
790.40 0.2199605
790.50 0.2198595
790.60 0.2197584
790.70 0.2196573
790.80 0.2195562
790.90 0.2194551
791.00 0.219354
791.10 0.2192529
791.20 0.2191519
791.30 0.2190508
791.40 0.2189497
791.50 0.2189497
791.60 0.2188486
791.70 0.2187475
791.80 0.2186464
791.90 0.2185453
792.00 0.2184443
792.10 0.2183432
792.20 0.2182421
792.30 0.218141
792.40 0.2180399
792.50 0.2179388
792.60 0.2178378
792.70 0.2177367
792.80 0.2176356
792.90 0.2175345
793.00 0.2174334
793.10 0.2173323
793.20 0.2172312
793.30 0.2171302
793.40 0.2170291
793.50 0.216928
793.60 0.216928
793.70 0.2168269
793.80 0.2167258
793.90 0.2166247
794.00 0.2165237
794.10 0.2164226
794.20 0.2163215
794.30 0.2162204
794.40 0.2161193
794.50 0.2160182
794.60 0.2159171
794.70 0.2158161
794.80 0.215715
794.90 0.2156139
795.00 0.2155128
795.10 0.2154117
795.20 0.2153106
795.30 0.2153106
795.40 0.2152095
795.50 0.2151085
795.60 0.2150074
795.70 0.2149063
795.80 0.2148052
795.90 0.2147041
796.00 0.214603
796.10 0.214502
796.20 0.2144009
796.30 0.2142998
796.40 0.2141987
796.50 0.2140976
796.60 0.2139965
796.70 0.2138954
796.80 0.2137944
796.90 0.2137944
797.00 0.2136933
797.10 0.2135922
797.20 0.2134911
797.30 0.21339
797.40 0.2132889
797.50 0.2131879
797.60 0.2130868
797.70 0.2129857
797.80 0.2128846
797.90 0.2127835
798.00 0.2126824
798.10 0.2125813
798.20 0.2124803
798.30 0.2124803
798.40 0.2123792
798.50 0.2122781
798.60 0.212177
798.70 0.2120759
798.80 0.2119748
798.90 0.2118738
799.00 0.2117727
799.10 0.2116716
799.20 0.2115705
799.30 0.2114694
799.40 0.2113683
799.50 0.2112672
799.60 0.2112672
799.70 0.2111662
799.80 0.2110651
799.90 0.210964
800.00 0.2108629
800.10 0.2107618
800.20 0.2106607
800.30 0.2105596
800.40 0.2104586
800.50 0.2103575
800.60 0.2102564
800.70 0.2101553
800.80 0.2101553
800.90 0.2100542
801.00 0.2099531
801.10 0.2098521
801.20 0.209751
801.30 0.2096499
801.40 0.2095488
801.50 0.2094477
801.60 0.2093466
801.70 0.2092455
801.80 0.2092455
801.90 0.2091445
802.00 0.2090434
802.10 0.2089423
802.20 0.2088412
802.30 0.2087401
802.40 0.208639
802.50 0.208538
802.60 0.2084369
802.70 0.2083358
802.80 0.2083358
802.90 0.2082347
803.00 0.2081336
803.10 0.2080325
803.20 0.2079314
803.30 0.2078304
803.40 0.2077293
803.50 0.2076282
803.60 0.2075271
803.70 0.207426
803.80 0.207426
803.90 0.2073249
804.00 0.2072239
804.10 0.2071228
804.20 0.2070217
804.30 0.2069206
804.40 0.2068195
804.50 0.2067184
804.60 0.2066173
804.70 0.2066173
804.80 0.2065163
804.90 0.2064152
805.00 0.2063141
805.10 0.206213
805.20 0.2061119
805.30 0.2060108
805.40 0.2059097
805.50 0.2058087
805.60 0.2058087
805.70 0.2057076
805.80 0.2056065
805.90 0.2055054
806.00 0.2054043
806.10 0.2053032
806.20 0.2052022
806.30 0.2051011
806.40 0.205
806.50 0.205
806.60 0.2048989
806.70 0.2047978
806.80 0.2046967
806.90 0.2045956
807.00 0.2044946
807.10 0.2043935
807.20 0.2042924
807.30 0.2041913
807.40 0.2041913
807.50 0.2040902
807.60 0.2039891
807.70 0.2038881
807.80 0.203787
807.90 0.2036859
808.00 0.2035848
808.10 0.2034837
808.20 0.2034837
808.30 0.2033826
808.40 0.2032815
808.50 0.2031805
808.60 0.2030794
808.70 0.2029783
808.80 0.2028772
808.90 0.2027761
809.00 0.2027761
809.10 0.202675
809.20 0.2025739
809.30 0.2024729
809.40 0.2023718
809.50 0.2022707
809.60 0.2021696
809.70 0.2020685
809.80 0.2020685
809.90 0.2019674
810.00 0.2018664
810.10 0.2017653
810.20 0.2016642
810.30 0.2015631
810.40 0.201462
810.50 0.201462
810.60 0.2013609
810.70 0.2012598
810.80 0.2011588
810.90 0.2010577
811.00 0.2009566
811.10 0.2008555
811.20 0.2008555
811.30 0.2007544
811.40 0.2006533
811.50 0.2005523
811.60 0.2004512
811.70 0.2003501
811.80 0.200249
811.90 0.200249
812.00 0.2001479
812.10 0.2000468
812.20 0.1999457
812.30 0.1998447
812.40 0.1997436
812.50 0.1996425
812.60 0.1996425
812.70 0.1995414
812.80 0.1994403
812.90 0.1993392
813.00 0.1992382
813.10 0.1991371
813.20 0.199036
813.30 0.199036
813.40 0.1989349
813.50 0.1988338
813.60 0.1987327
813.70 0.1986316
813.80 0.1985306
813.90 0.1985306
814.00 0.1984295
814.10 0.1983284
814.20 0.1982273
814.30 0.1981262
814.40 0.1980251
814.50 0.197924
814.60 0.197924
814.70 0.197823
814.80 0.1977219
814.90 0.1976208
815.00 0.1975197
815.10 0.1974186
815.20 0.1974186
815.30 0.1973175
815.40 0.1972165
815.50 0.1971154
815.60 0.1970143
815.70 0.1969132
815.80 0.1969132
815.90 0.1968121
816.00 0.196711
816.10 0.1966099
816.20 0.1965089
816.30 0.1964078
816.40 0.1963067
816.50 0.1963067
816.60 0.1962056
816.70 0.1961045
816.80 0.1960034
816.90 0.1959024
817.00 0.1958013
817.10 0.1958013
817.20 0.1957002
817.30 0.1955991
817.40 0.195498
817.50 0.1953969
817.60 0.1952958
817.70 0.1952958
817.80 0.1951948
817.90 0.1950937
818.00 0.1949926
818.10 0.1948915
818.20 0.1947904
818.30 0.1947904
818.40 0.1946893
818.50 0.1945882
818.60 0.1944872
818.70 0.1943861
818.80 0.194285
818.90 0.194285
819.00 0.1941839
819.10 0.1940828
819.20 0.1939817
819.30 0.1938807
819.40 0.1938807
819.50 0.1937796
819.60 0.1936785
819.70 0.1935774
819.80 0.1934763
819.90 0.1933752
820.00 0.1933752
820.10 0.1932741
820.20 0.1931731
820.30 0.193072
820.40 0.1929709
820.50 0.1929709
820.60 0.1928698
820.70 0.1927687
820.80 0.1926676
820.90 0.1925666
821.00 0.1924655
821.10 0.1924655
821.20 0.1923644
821.30 0.1922633
821.40 0.1921622
821.50 0.1920611
821.60 0.1920611
821.70 0.19196
821.80 0.191859
821.90 0.1917579
822.00 0.1916568
822.10 0.1915557
822.20 0.1915557
822.30 0.1914546
822.40 0.1913535
822.50 0.1912525
822.60 0.1911514
822.70 0.1911514
822.80 0.1910503
822.90 0.1909492
823.00 0.1908481
823.10 0.190747
823.20 0.190747
823.30 0.1906459
823.40 0.1905449
823.50 0.1904438
823.60 0.1903427
823.70 0.1903427
823.80 0.1902416
823.90 0.1901405
824.00 0.1900394
824.10 0.1899383
824.20 0.1899383
824.30 0.1898373
824.40 0.1897362
824.50 0.1896351
824.60 0.189534
824.70 0.189534
824.80 0.1894329
824.90 0.1893318
825.00 0.1892308
825.10 0.1891297
825.20 0.1891297
825.30 0.1890286
825.40 0.1889275
825.50 0.1888264
825.60 0.1887253
825.70 0.1887253
825.80 0.1886242
825.90 0.1885232
826.00 0.1884221
826.10 0.188321
826.20 0.188321
826.30 0.1882199
826.40 0.1881188
826.50 0.1880177
826.60 0.1879167
826.70 0.1879167
826.80 0.1878156
826.90 0.1877145
827.00 0.1876134
827.10 0.1875123
827.20 0.1875123
827.30 0.1874112
827.40 0.1873101
827.50 0.1872091
827.60 0.1872091
827.70 0.187108
827.80 0.1870069
827.90 0.1869058
828.00 0.1868047
828.10 0.1868047
828.20 0.1867036
828.30 0.1866025
828.40 0.1865015
828.50 0.1864004
828.60 0.1864004
828.70 0.1862993
828.80 0.1861982
828.90 0.1860971
829.00 0.1860971
829.10 0.185996
829.20 0.185895
829.30 0.1857939
829.40 0.1856928
829.50 0.1856928
829.60 0.1855917
829.70 0.1854906
829.80 0.1853895
829.90 0.1853895
830.00 0.1852884
830.10 0.1851874
830.20 0.1850863
830.30 0.1849852
830.40 0.1849852
830.50 0.1848841
830.60 0.184783
830.70 0.1846819
830.80 0.1846819
830.90 0.1845809
831.00 0.1844798
831.10 0.1843787
831.20 0.1842776
831.30 0.1842776
831.40 0.1841765
831.50 0.1840754
831.60 0.1839743
831.70 0.1839743
831.80 0.1838733
831.90 0.1837722
832.00 0.1836711
832.10 0.1836711
832.20 0.18357
832.30 0.1834689
832.40 0.1833678
832.50 0.1832668
832.60 0.1832668
832.70 0.1831657
832.80 0.1830646
832.90 0.1829635
833.00 0.1829635
833.10 0.1828624
833.20 0.1827613
833.30 0.1826602
833.40 0.1826602
833.50 0.1825592
833.60 0.1824581
833.70 0.182357
833.80 0.182357
833.90 0.1822559
834.00 0.1821548
834.10 0.1820537
834.20 0.1819526
834.30 0.1819526
834.40 0.1818516
834.50 0.1817505
834.60 0.1816494
834.70 0.1816494
834.80 0.1815483
834.90 0.1814472
835.00 0.1813461
835.10 0.1813461
835.20 0.1812451
835.30 0.181144
835.40 0.1810429
835.50 0.1810429
835.60 0.1809418
835.70 0.1808407
835.80 0.1807396
835.90 0.1807396
836.00 0.1806385
836.10 0.1805375
836.20 0.1804364
836.30 0.1804364
836.40 0.1803353
836.50 0.1802342
836.60 0.1801331
836.70 0.1801331
836.80 0.180032
836.90 0.179931
837.00 0.1798299
837.10 0.1798299
837.20 0.1797288
837.30 0.1796277
837.40 0.1795266
837.50 0.1795266
837.60 0.1794255
837.70 0.1793244
837.80 0.1792234
837.90 0.1792234
838.00 0.1791223
838.10 0.1790212
838.20 0.1789201
838.30 0.1789201
838.40 0.178819
838.50 0.1787179
838.60 0.1786169
838.70 0.1786169
838.80 0.1785158
838.90 0.1784147
839.00 0.1783136
839.10 0.1783136
839.20 0.1782125
839.30 0.1781114
839.40 0.1780103
839.50 0.1780103
839.60 0.1779093
839.70 0.1778082
839.80 0.1778082
839.90 0.1777071
840.00 0.177606
840.10 0.1775049
840.20 0.1775049
840.30 0.1774038
840.40 0.1773027
840.50 0.1772017
840.60 0.1772017
840.70 0.1771006
840.80 0.1769995
840.90 0.1768984
841.00 0.1768984
841.10 0.1767973
841.20 0.1766962
841.30 0.1766962
841.40 0.1765952
841.50 0.1764941
841.60 0.176393
841.70 0.176393
841.80 0.1762919
841.90 0.1761908
842.00 0.1760897
842.10 0.1760897
842.20 0.1759886
842.30 0.1758876
842.40 0.1757865
842.50 0.1757865
842.60 0.1756854
842.70 0.1755843
842.80 0.1755843
842.90 0.1754832
843.00 0.1753821
843.10 0.1752811
843.20 0.1752811
843.30 0.17518
843.40 0.1750789
843.50 0.1750789
843.60 0.1749778
843.70 0.1748767
843.80 0.1747756
843.90 0.1747756
844.00 0.1746745
844.10 0.1745735
844.20 0.1744724
844.30 0.1744724
844.40 0.1743713
844.50 0.1742702
844.60 0.1742702
844.70 0.1741691
844.80 0.174068
844.90 0.1739669
845.00 0.1739669
845.10 0.1738659
845.20 0.1737648
845.30 0.1737648
845.40 0.1736637
845.50 0.1735626
845.60 0.1734615
845.70 0.1734615
845.80 0.1733604
845.90 0.1732594
846.00 0.1732594
846.10 0.1731583
846.20 0.1730572
846.30 0.1729561
846.40 0.1729561
846.50 0.172855
846.60 0.1727539
846.70 0.1727539
846.80 0.1726528
846.90 0.1725518
847.00 0.1724507
847.10 0.1724507
847.20 0.1723496
847.30 0.1722485
847.40 0.1722485
847.50 0.1721474
847.60 0.1720463
847.70 0.1720463
847.80 0.1719453
847.90 0.1718442
848.00 0.1718442
848.10 0.1717431
848.20 0.171642
848.30 0.171642
848.40 0.1715409
848.50 0.1714398
848.60 0.1714398
848.70 0.1713387
848.80 0.1713387
848.90 0.1712377
849.00 0.1711366
849.10 0.1711366
849.20 0.1710355
849.30 0.1709344
849.40 0.1709344
849.50 0.1708333
849.60 0.1707322
849.70 0.1707322
849.80 0.1706312
849.90 0.1705301
850.00 0.1705301
850.10 0.170429
850.20 0.1703279
850.30 0.1703279
850.40 0.1702268
850.50 0.1701257
850.60 0.1701257
850.70 0.1700246
850.80 0.1699236
850.90 0.1699236
851.00 0.1698225
851.10 0.1697214
851.20 0.1697214
851.30 0.1696203
851.40 0.1695192
851.50 0.1695192
851.60 0.1694181
851.70 0.1694181
851.80 0.169317
851.90 0.169216
852.00 0.169216
852.10 0.1691149
852.20 0.1690138
852.30 0.1690138
852.40 0.1689127
852.50 0.1688116
852.60 0.1688116
852.70 0.1687105
852.80 0.1686095
852.90 0.1686095
853.00 0.1685084
853.10 0.1685084
853.20 0.1684073
853.30 0.1683062
853.40 0.1683062
853.50 0.1682051
853.60 0.168104
853.70 0.168104
853.80 0.1680029
853.90 0.1679019
854.00 0.1679019
854.10 0.1678008
854.20 0.1676997
854.30 0.1676997
854.40 0.1675986
854.50 0.1675986
854.60 0.1674975
854.70 0.1673964
854.80 0.1673964
854.90 0.1672954
855.00 0.1671943
855.10 0.1671943
855.20 0.1670932
855.30 0.1669921
855.40 0.1669921
855.50 0.166891
855.60 0.166891
855.70 0.1667899
855.80 0.1666888
855.90 0.1666888
856.00 0.1665878
856.10 0.1664867
856.20 0.1664867
856.30 0.1663856
856.40 0.1663856
856.50 0.1662845
856.60 0.1661834
856.70 0.1661834
856.80 0.1660823
856.90 0.1659812
857.00 0.1659812
857.10 0.1658802
857.20 0.1658802
857.30 0.1657791
857.40 0.165678
857.50 0.165678
857.60 0.1655769
857.70 0.1655769
857.80 0.1654758
857.90 0.1653747
858.00 0.1653747
858.10 0.1652737
858.20 0.1652737
858.30 0.1651726
858.40 0.1650715
858.50 0.1650715
858.60 0.1649704
858.70 0.1649704
858.80 0.1648693
858.90 0.1647682
859.00 0.1647682
859.10 0.1646671
859.20 0.1646671
859.30 0.1645661
859.40 0.164465
859.50 0.164465
859.60 0.1643639
859.70 0.1643639
859.80 0.1642628
859.90 0.1641617
860.00 0.1641617
860.10 0.1640606
860.20 0.1640606
860.30 0.1639596
860.40 0.1638585
860.50 0.1638585
860.60 0.1637574
860.70 0.1637574
860.80 0.1636563
860.90 0.1635552
861.00 0.1635552
861.10 0.1634541
861.20 0.1634541
861.30 0.163353
861.40 0.163353
861.50 0.163252
861.60 0.1631509
861.70 0.1631509
861.80 0.1630498
861.90 0.1630498
862.00 0.1629487
862.10 0.1628476
862.20 0.1628476
862.30 0.1627465
862.40 0.1627465
862.50 0.1626455
862.60 0.1625444
862.70 0.1625444
862.80 0.1624433
862.90 0.1624433
863.00 0.1623422
863.10 0.1622411
863.20 0.1622411
863.30 0.16214
863.40 0.16214
863.50 0.1620389
863.60 0.1619379
863.70 0.1619379
863.80 0.1618368
863.90 0.1618368
864.00 0.1617357
864.10 0.1617357
864.20 0.1616346
864.30 0.1615335
864.40 0.1615335
864.50 0.1614324
864.60 0.1614324
864.70 0.1613313
864.80 0.1612303
864.90 0.1612303
865.00 0.1611292
865.10 0.1611292
865.20 0.1610281
865.30 0.160927
865.40 0.160927
865.50 0.1608259
865.60 0.1608259
865.70 0.1607248
865.80 0.1607248
865.90 0.1606238
866.00 0.1605227
866.10 0.1605227
866.20 0.1604216
866.30 0.1604216
866.40 0.1603205
866.50 0.1602194
866.60 0.1602194
866.70 0.1601183
866.80 0.1601183
866.90 0.1600172
867.00 0.1599162
867.10 0.1599162
867.20 0.1599162
867.30 0.1598151
867.40 0.1598151
867.50 0.159714
867.60 0.159714
867.70 0.1596129
867.80 0.1596129
867.90 0.1595118
868.00 0.1595118
868.10 0.1594107
868.20 0.1594107
868.30 0.1593097
868.40 0.1593097
868.50 0.1592086
868.60 0.1592086
868.70 0.1591075
868.80 0.1591075
868.90 0.1590064
869.00 0.1590064
869.10 0.1589053
869.20 0.1589053
869.30 0.1589053
869.40 0.1588042
869.50 0.1588042
869.60 0.1587031
869.70 0.1587031
869.80 0.1586021
869.90 0.1586021
870.00 0.158501
870.10 0.158501
870.20 0.1583999
870.30 0.1583999
870.40 0.1582988
870.50 0.1582988
870.60 0.1581977
870.70 0.1581977
870.80 0.1580966
870.90 0.1580966
871.00 0.1579956
871.10 0.1579956
871.20 0.1579956
871.30 0.1578945
871.40 0.1578945
871.50 0.1577934
871.60 0.1577934
871.70 0.1576923
871.80 0.1576923
871.90 0.1575912
872.00 0.1575912
872.10 0.1574901
872.20 0.1574901
872.30 0.157389
872.40 0.157389
872.50 0.157288
872.60 0.157288
872.70 0.1571869
872.80 0.1570858
872.90 0.1570858
873.00 0.1569847
873.10 0.1569847
873.20 0.1568836
873.30 0.1568836
873.40 0.1567825
873.50 0.1567825
873.60 0.1566814
873.70 0.1566814
873.80 0.1565804
873.90 0.1565804
874.00 0.1564793
874.10 0.1564793
874.20 0.1563782
874.30 0.1563782
874.40 0.1562771
874.50 0.156176
874.60 0.156176
874.70 0.1560749
874.80 0.1560749
874.90 0.1559739
875.00 0.1559739
875.10 0.1558728
875.20 0.1558728
875.30 0.1557717
875.40 0.1557717
875.50 0.1556706
875.60 0.1556706
875.70 0.1555695
875.80 0.1555695
875.90 0.1554684
876.00 0.1554684
876.10 0.1553673
876.20 0.1553673
876.30 0.1552663
876.40 0.1552663
876.50 0.1551652
876.60 0.1550641
876.70 0.1550641
876.80 0.154963
876.90 0.154963
877.00 0.1548619
877.10 0.1548619
877.20 0.1548619
877.30 0.1547608
877.40 0.1547608
877.50 0.1546598
877.60 0.1546598
877.70 0.1546598
877.80 0.1545587
877.90 0.1545587
878.00 0.1544576
878.10 0.1544576
878.20 0.1544576
878.30 0.1543565
878.40 0.1543565
878.50 0.1542554
878.60 0.1542554
878.70 0.1542554
878.80 0.1541543
878.90 0.1541543
879.00 0.1540532
879.10 0.1540532
879.20 0.1540532
879.30 0.1539522
879.40 0.1539522
879.50 0.1538511
879.60 0.1538511
879.70 0.1538511
879.80 0.15375
879.90 0.15375
880.00 0.1536489
880.10 0.1536489
880.20 0.1535478
880.30 0.1535478
880.40 0.1535478
880.50 0.1534467
880.60 0.1534467
880.70 0.1534467
880.80 0.1533456
880.90 0.1533456
881.00 0.1532446
881.10 0.1532446
881.20 0.1532446
881.30 0.1531435
881.40 0.1531435
881.50 0.1530424
881.60 0.1530424
881.70 0.1530424
881.80 0.1529413
881.90 0.1529413
882.00 0.1528402
882.10 0.1527391
882.20 0.1527391
882.30 0.1526381
882.40 0.152537
882.50 0.1524359
882.60 0.1523348
882.70 0.1522337
882.80 0.1522337
882.90 0.1521326
883.00 0.1520315
883.10 0.1519305
883.20 0.1518294
883.30 0.1517283
883.40 0.1516272
883.50 0.1516272
883.60 0.1515261
883.70 0.151425
883.80 0.151324
883.90 0.1512229
884.00 0.1511218
884.10 0.1510207
884.20 0.1510207
884.30 0.1509196
884.40 0.1508185
884.50 0.1507174
884.60 0.1506164
884.70 0.1505153
884.80 0.1505153
884.90 0.1504142
885.00 0.1503131
885.10 0.150212
885.20 0.1501109
885.30 0.1500099
885.40 0.1500099
885.50 0.1499088
885.60 0.1498077
885.70 0.1497066
885.80 0.1496055
885.90 0.1495044
886.00 0.1494033
886.10 0.1494033
886.20 0.1493023
886.30 0.1492012
886.40 0.1491001
886.50 0.148999
886.60 0.1488979
886.70 0.1488979
886.80 0.1487968
886.90 0.1486957
887.00 0.1485947
887.10 0.1485947
887.20 0.1485947
887.30 0.1485947
887.40 0.1485947
887.50 0.1485947
887.60 0.1485947
887.70 0.1485947
887.80 0.1485947
887.90 0.1485947
888.00 0.1485947
888.10 0.1485947
888.20 0.1485947
888.30 0.1485947
888.40 0.1485947
888.50 0.1485947
888.60 0.1484936
888.70 0.1484936
888.80 0.1484936
888.90 0.1484936
889.00 0.1484936
889.10 0.1484936
889.20 0.1484936
889.30 0.1484936
889.40 0.1484936
889.50 0.1484936
889.60 0.1484936
889.70 0.1484936
889.80 0.1484936
889.90 0.1484936
890.00 0.1484936
890.10 0.1484936
890.20 0.1484936
890.30 0.1484936
890.40 0.1484936
890.50 0.1484936
890.60 0.1484936
890.70 0.1484936
890.80 0.1484936
890.90 0.1484936
891.00 0.1484936
891.10 0.1484936
891.20 0.1483925
891.30 0.1483925
891.40 0.1483925
891.50 0.1483925
891.60 0.1483925
891.70 0.1483925
891.80 0.1483925
891.90 0.1483925
892.00 0.1483925
892.10 0.1483925
892.20 0.1482914
892.30 0.1482914
892.40 0.1481903
892.50 0.1481903
892.60 0.1480892
892.70 0.1480892
892.80 0.1479882
892.90 0.1479882
893.00 0.1478871
893.10 0.1478871
893.20 0.147786
893.30 0.147786
893.40 0.1476849
893.50 0.1476849
893.60 0.1475838
893.70 0.1475838
893.80 0.1474827
893.90 0.1474827
894.00 0.1473816
894.10 0.1473816
894.20 0.1472806
894.30 0.1472806
894.40 0.1471795
894.50 0.1471795
894.60 0.1470784
894.70 0.1470784
894.80 0.1469773
894.90 0.1469773
895.00 0.1468762
895.10 0.1468762
895.20 0.1467751
895.30 0.1467751
895.40 0.1466741
895.50 0.1466741
895.60 0.146573
895.70 0.146573
895.80 0.1464719
895.90 0.1464719
896.00 0.1463708
896.10 0.1463708
896.20 0.1462697
896.30 0.1462697
896.40 0.1461686
896.50 0.1461686
896.60 0.1460675
896.70 0.1460675
896.80 0.1459665
896.90 0.1459665
897.00 0.1458654
897.10 0.1457643
897.20 0.1455621
897.30 0.1453599
897.40 0.1452589
897.50 0.1450567
897.60 0.1448545
897.70 0.1447534
897.80 0.1445513
897.90 0.1443491
898.00 0.144248
898.10 0.1440458
898.20 0.1438437
898.30 0.1437426
898.40 0.1435404
898.50 0.1434393
898.60 0.1432372
898.70 0.143035
898.80 0.1429339
898.90 0.1427317
899.00 0.1425296
899.10 0.1424285
899.20 0.1422263
899.30 0.1420242
899.40 0.1419231
899.50 0.1417209
899.60 0.1415187
899.70 0.1414176
899.80 0.1412155
899.90 0.1411144
900.00 0.1409122
900.10 0.14071
900.20 0.140609
900.30 0.1404068
900.40 0.1402046
900.50 0.1401035
900.60 0.1399014
900.70 0.1396992
900.80 0.1395981
900.90 0.1393959
901.00 0.1392949
901.10 0.1390927
901.20 0.1388905
901.30 0.1387894
901.40 0.1385873
901.50 0.1383851
901.60 0.138284
901.70 0.1380818
901.80 0.1379808
901.90 0.1377786
902.00 0.1375764
902.10 0.1376775
902.20 0.1376775
902.30 0.1377786
902.40 0.1377786
902.50 0.1378797
902.60 0.1378797
902.70 0.1379808
902.80 0.1379808
902.90 0.1380818
903.00 0.1380818
903.10 0.1381829
903.20 0.1381829
903.30 0.1381829
903.40 0.138284
903.50 0.138284
903.60 0.1383851
903.70 0.1383851
903.80 0.1384862
903.90 0.1384862
904.00 0.1385873
904.10 0.1385873
904.20 0.1386884
904.30 0.1386884
904.40 0.1387894
904.50 0.1387894
904.60 0.1388905
904.70 0.1388905
904.80 0.1388905
904.90 0.1389916
905.00 0.1389916
905.10 0.1390927
905.20 0.1390927
905.30 0.1391938
905.40 0.1391938
905.50 0.1392949
905.60 0.1392949
905.70 0.1393959
905.80 0.1393959
905.90 0.139497
906.00 0.139497
906.10 0.1395981
906.20 0.1395981
906.30 0.1395981
906.40 0.1396992
906.50 0.1396992
906.60 0.1398003
906.70 0.1398003
906.80 0.1399014
906.90 0.1399014
907.00 0.1400025
907.10 0.1400025
907.20 0.1399014
907.30 0.1399014
907.40 0.1399014
907.50 0.1399014
907.60 0.1399014
907.70 0.1399014
907.80 0.1399014
907.90 0.1399014
908.00 0.1398003
908.10 0.1398003
908.20 0.1398003
908.30 0.1398003
908.40 0.1398003
908.50 0.1398003
908.60 0.1398003
908.70 0.1398003
908.80 0.1396992
908.90 0.1396992
909.00 0.1396992
909.10 0.1396992
909.20 0.1396992
909.30 0.1396992
909.40 0.1396992
909.50 0.1396992
909.60 0.1395981
909.70 0.1395981
909.80 0.1395981
909.90 0.1395981
910.00 0.1395981
910.10 0.1395981
910.20 0.1395981
910.30 0.1395981
910.40 0.139497
910.50 0.139497
910.60 0.139497
910.70 0.139497
910.80 0.139497
910.90 0.139497
911.00 0.139497
911.10 0.139497
911.20 0.1393959
911.30 0.1393959
911.40 0.1393959
911.50 0.1393959
911.60 0.1393959
911.70 0.1393959
911.80 0.1393959
911.90 0.1392949
912.00 0.1392949
912.10 0.1391938
912.20 0.1390927
912.30 0.1390927
912.40 0.1389916
912.50 0.1388905
912.60 0.1387894
912.70 0.1386884
912.80 0.1385873
912.90 0.1384862
913.00 0.1383851
913.10 0.138284
913.20 0.1381829
913.30 0.1380818
913.40 0.1379808
913.50 0.1378797
913.60 0.1377786
913.70 0.1377786
913.80 0.1376775
913.90 0.1375764
914.00 0.1374753
914.10 0.1373742
914.20 0.1372732
914.30 0.1371721
914.40 0.137071
914.50 0.1369699
914.60 0.1368688
914.70 0.1367677
914.80 0.1366667
914.90 0.1365656
915.00 0.1364645
915.10 0.1364645
915.20 0.1363634
915.30 0.1362623
915.40 0.1361612
915.50 0.1360601
915.60 0.1359591
915.70 0.135858
915.80 0.1357569
915.90 0.1356558
916.00 0.1355547
916.10 0.1354536
916.20 0.1353526
916.30 0.1352515
916.40 0.1352515
916.50 0.1351504
916.60 0.1350493
916.70 0.1349482
916.80 0.1348471
916.90 0.134746
917.00 0.134645
917.10 0.1344428
917.20 0.1342406
917.30 0.1340385
917.40 0.1338363
917.50 0.1336341
917.60 0.1334319
917.70 0.1332298
917.80 0.1330276
917.90 0.1328254
918.00 0.1326233
918.10 0.1324211
918.20 0.1322189
918.30 0.1320168
918.40 0.1318146
918.50 0.1316124
918.60 0.1314102
918.70 0.1312081
918.80 0.1310059
918.90 0.1308037
919.00 0.1306016
919.10 0.1303994
919.20 0.1301972
919.30 0.1299951
919.40 0.1297929
919.50 0.1295907
919.60 0.1293886
919.70 0.1291864
919.80 0.1289842
919.90 0.128782
920.00 0.1285799
920.10 0.1283777
920.20 0.1281755
920.30 0.1279734
920.40 0.1277712
920.50 0.127569
920.60 0.1273669
920.70 0.1271647
920.80 0.1270636
920.90 0.1268614
921.00 0.1266593
921.10 0.1264571
921.20 0.1262549
921.30 0.1260528
921.40 0.1258506
921.50 0.1256484
921.60 0.1254462
921.70 0.1252441
921.80 0.1250419
921.90 0.1248397
922.00 0.1246376
922.10 0.1245365
922.20 0.1245365
922.30 0.1244354
922.40 0.1243343
922.50 0.1243343
922.60 0.1242332
922.70 0.1242332
922.80 0.1241321
922.90 0.1240311
923.00 0.1240311
923.10 0.12393
923.20 0.12393
923.30 0.1238289
923.40 0.1237278
923.50 0.1237278
923.60 0.1236267
923.70 0.1235256
923.80 0.1235256
923.90 0.1234245
924.00 0.1234245
924.10 0.1233235
924.20 0.1232224
924.30 0.1232224
924.40 0.1231213
924.50 0.1231213
924.60 0.1230202
924.70 0.1229191
924.80 0.1229191
924.90 0.122818
925.00 0.122717
925.10 0.122717
925.20 0.1226159
925.30 0.1226159
925.40 0.1225148
925.50 0.1224137
925.60 0.1224137
925.70 0.1223126
925.80 0.1223126
925.90 0.1222115
926.00 0.1221104
926.10 0.1221104
926.20 0.1220094
926.30 0.1220094
926.40 0.1219083
926.50 0.1218072
926.60 0.1218072
926.70 0.1217061
926.80 0.121605
926.90 0.121605
927.00 0.1215039
927.10 0.121605
927.20 0.1217061
927.30 0.1218072
927.40 0.1219083
927.50 0.1220094
927.60 0.1221104
927.70 0.1222115
927.80 0.1223126
927.90 0.1224137
928.00 0.1225148
928.10 0.1226159
928.20 0.122717
928.30 0.122818
928.40 0.1229191
928.50 0.1230202
928.60 0.1231213
928.70 0.1232224
928.80 0.1233235
928.90 0.1234245
929.00 0.1235256
929.10 0.1236267
929.20 0.1237278
929.30 0.1237278
929.40 0.1238289
929.50 0.12393
929.60 0.1240311
929.70 0.1241321
929.80 0.1242332
929.90 0.1243343
930.00 0.1244354
930.10 0.1245365
930.20 0.1246376
930.30 0.1247386
930.40 0.1248397
930.50 0.1249408
930.60 0.1250419
930.70 0.125143
930.80 0.1252441
930.90 0.1253452
931.00 0.1254462
931.10 0.1255473
931.20 0.1256484
931.30 0.1257495
931.40 0.1258506
931.50 0.1258506
931.60 0.1259517
931.70 0.1260528
931.80 0.1261538
931.90 0.1262549
932.00 0.126356
932.10 0.126356
932.20 0.1264571
932.30 0.1264571
932.40 0.1264571
932.50 0.1265582
932.60 0.1265582
932.70 0.1265582
932.80 0.1265582
932.90 0.1266593
933.00 0.1266593
933.10 0.1266593
933.20 0.1266593
933.30 0.1267603
933.40 0.1267603
933.50 0.1267603
933.60 0.1267603
933.70 0.1268614
933.80 0.1268614
933.90 0.1268614
934.00 0.1268614
934.10 0.1269625
934.20 0.1269625
934.30 0.1269625
934.40 0.1269625
934.50 0.1269625
934.60 0.1269625
934.70 0.1269625
934.80 0.1269625
934.90 0.1269625
935.00 0.1268614
935.10 0.1268614
935.20 0.1268614
935.30 0.1268614
935.40 0.1268614
935.50 0.1268614
935.60 0.1268614
935.70 0.1268614
935.80 0.1268614
935.90 0.1267603
936.00 0.1267603
936.10 0.1267603
936.20 0.1267603
936.30 0.1267603
936.40 0.1267603
936.50 0.1267603
936.60 0.1267603
936.70 0.1267603
936.80 0.1266593
936.90 0.1266593
937.00 0.1266593
937.10 0.1266593
937.20 0.1265582
937.30 0.1265582
937.40 0.1265582
937.50 0.1264571
937.60 0.1264571
937.70 0.1264571
937.80 0.126356
937.90 0.126356
938.00 0.126356
938.10 0.1262549
938.20 0.1262549
938.30 0.1261538
938.40 0.1261538
938.50 0.1260528
938.60 0.1260528
938.70 0.1259517
938.80 0.1259517
938.90 0.1258506
939.00 0.1257495
939.10 0.1257495
939.20 0.1256484
939.30 0.1256484
939.40 0.1255473
939.50 0.1255473
939.60 0.1254462
939.70 0.1253452
939.80 0.1253452
939.90 0.1252441
940.00 0.1252441
940.10 0.125143
940.20 0.1250419
940.30 0.1250419
940.40 0.1249408
940.50 0.1248397
940.60 0.1247386
940.70 0.1247386
940.80 0.1246376
940.90 0.1245365
941.00 0.1244354
941.10 0.1243343
941.20 0.1242332
941.30 0.1241321
941.40 0.1241321
941.50 0.1240311
941.60 0.12393
941.70 0.1238289
941.80 0.1237278
941.90 0.1236267
942.00 0.1236267
942.10 0.1235256
942.20 0.1233235
942.30 0.1232224
942.40 0.1231213
942.50 0.1230202
942.60 0.1229191
942.70 0.122717
942.80 0.1226159
942.90 0.1225148
943.00 0.1224137
943.10 0.1222115
943.20 0.1221104
943.30 0.1220094
943.40 0.1219083
943.50 0.1217061
943.60 0.121605
943.70 0.1215039
943.80 0.1214029
943.90 0.1212007
944.00 0.1210996
944.10 0.1209985
944.20 0.1208974
944.30 0.1206953
944.40 0.1205942
944.50 0.120392
944.60 0.1201898
944.70 0.1200887
944.80 0.1198866
944.90 0.1197855
945.00 0.1195833
945.10 0.1193812
945.20 0.1192801
945.30 0.1190779
945.40 0.1188757
945.50 0.1186736
945.60 0.1184714
945.70 0.1182692
945.80 0.1180671
945.90 0.1178649
946.00 0.1176627
946.10 0.1174605
946.20 0.1172584
946.30 0.1170562
946.40 0.116854
946.50 0.1166519
946.60 0.1164497
946.70 0.1162475
946.80 0.1160454
946.90 0.1158432
947.00 0.115641
947.10 0.1154388
947.20 0.1152367
947.30 0.1149334
947.40 0.1147313
947.50 0.114428
947.60 0.1142258
947.70 0.1139226
947.80 0.1136193
947.90 0.1134172
948.00 0.1131139
948.10 0.1129117
948.20 0.1126085
948.30 0.1124063
948.40 0.112103
948.50 0.1117998
948.60 0.1115976
948.70 0.1112944
948.80 0.1110922
948.90 0.1107889
949.00 0.1105868
949.10 0.1102835
949.20 0.1100814
949.30 0.1097781
949.40 0.1094748
949.50 0.1091716
949.60 0.1089694
949.70 0.1086662
949.80 0.1083629
949.90 0.1080597
950.00 0.1077564
950.10 0.1075542
950.20 0.107251
950.30 0.1069477
950.40 0.1066445
950.50 0.1063412
950.60 0.106139
950.70 0.1058358
950.80 0.1055325
950.90 0.1052293
951.00 0.104926
951.10 0.1047239
951.20 0.1044206
951.30 0.1041173
951.40 0.1038141
951.50 0.1036119
951.60 0.1033087
951.70 0.1031065
951.80 0.1028032
951.90 0.1025
952.00 0.1022978
952.10 0.1020957
952.20 0.1017924
952.30 0.1015902
952.40 0.1013881
952.50 0.1011859
952.60 0.1009635
952.70 0.1007512
952.80 0.1005288
952.90 0.1004278
953.00 0.1003166
953.10 0.1002155
953.20 0.1001043
953.30 0.1000032
953.40 0.099892
953.50 0.09979092
953.60 0.1001144
953.70 0.1004379
953.80 0.1007613
953.90 0.1010848
954.00 0.1017924
954.10 0.1025
954.20 0.1035108
954.30 0.1031065
954.40 0.1013881
954.50 0.1004379
954.60 0.09975049
954.70 0.09907322
954.80 0.09879018
954.90 0.09849703
955.00 0.09820389
955.10 0.09792085
955.20 0.09792085
955.30 0.09792085
955.40 0.09792085
955.50 0.09792085
955.60 0.09792085
955.70 0.09792085
955.80 0.09792085
955.90 0.09806237
956.00 0.09820389
956.10 0.09834541
956.20 0.09847682
956.30 0.09861834
956.40 0.09875985
956.50 0.09890137
956.60 0.09904289
956.70 0.0991743
956.80 0.09931582
956.90 0.09945734
957.00 0.09959886
957.10 0.09976059
957.20 0.09992233
957.30 0.1000942
957.40 0.1002559
957.50 0.1004176
957.60 0.1005895
957.70 0.1007512
957.80 0.1009231
957.90 0.1010848
958.00 0.101287
958.10 0.1013881
958.20 0.1015902
958.30 0.1017924
958.40 0.1018935
958.50 0.1020957
958.60 0.1021967
958.70 0.1023989
958.80 0.1026011
958.90 0.1027022
959.00 0.1029043
959.10 0.1031065
959.20 0.1032076
959.30 0.1034098
959.40 0.1035108
959.50 0.103713
959.60 0.1038141
959.70 0.1039152
959.80 0.1041173
959.90 0.1042184
960.00 0.1043195
960.10 0.1045217
960.20 0.1046228
960.30 0.1048249
960.40 0.104926
960.50 0.1050271
960.60 0.1052293
960.70 0.1053304
960.80 0.1054315
960.90 0.1056336
961.00 0.1057347
961.10 0.1058358
961.20 0.106038
961.30 0.106139
961.40 0.1062401
961.50 0.1063412
961.60 0.1065434
961.70 0.1066445
961.80 0.1067456
961.90 0.1068466
962.00 0.1069477
962.10 0.1070488
962.20 0.1071499
962.30 0.107251
962.40 0.1073521
962.50 0.1074531
962.60 0.1075542
962.70 0.1076553
962.80 0.1077564
962.90 0.1078575
963.00 0.1079586
963.10 0.1080597
963.20 0.1081607
963.30 0.1082618
963.40 0.1083629
963.50 0.1083629
963.60 0.108464
963.70 0.1085651
963.80 0.1086662
963.90 0.1086662
964.00 0.1087673
964.10 0.1088683
964.20 0.1089694
964.30 0.1090705
964.40 0.1090705
964.50 0.1091716
964.60 0.1091716
964.70 0.1092727
964.80 0.1093738
964.90 0.1093738
965.00 0.1094748
965.10 0.1094748
965.20 0.1095759
965.30 0.1095759
965.40 0.109677
965.50 0.1097781
965.60 0.1097781
965.70 0.1098792
965.80 0.1098792
965.90 0.1099803
966.00 0.1099803
966.10 0.1100814
966.20 0.1101824
966.30 0.1101824
966.40 0.1102835
966.50 0.1102835
966.60 0.1102835
966.70 0.1103846
966.80 0.1103846
966.90 0.1104857
967.00 0.1104857
967.10 0.1104857
967.20 0.1105868
967.30 0.1105868
967.40 0.1105868
967.50 0.1106879
967.60 0.1106879
967.70 0.1106879
967.80 0.1107889
967.90 0.1107889
968.00 0.1107889
968.10 0.11089
968.20 0.11089
968.30 0.11089
968.40 0.11089
968.50 0.11089
968.60 0.1109911
968.70 0.1109911
968.80 0.1109911
968.90 0.1109911
969.00 0.1109911
969.10 0.1109911
969.20 0.1109911
969.30 0.1110922
969.40 0.1110922
969.50 0.1110922
969.60 0.1110922
969.70 0.1110922
969.80 0.1110922
969.90 0.1111933
970.00 0.1111933
970.10 0.1111933
970.20 0.1111933
970.30 0.1111933
970.40 0.1111933
970.50 0.1111933
970.60 0.1111933
970.70 0.1111933
970.80 0.1111933
970.90 0.1111933
971.00 0.1111933
971.10 0.1111933
971.20 0.1111933
971.30 0.1111933
971.40 0.1111933
971.50 0.1111933
971.60 0.1111933
971.70 0.1111933
971.80 0.1111933
971.90 0.1111933
972.00 0.1111933
972.10 0.1111933
972.20 0.1111933
972.30 0.1111933
972.40 0.1111933
972.50 0.1111933
972.60 0.1111933
972.70 0.1110922
972.80 0.1110922
972.90 0.1110922
973.00 0.1110922
973.10 0.1110922
973.20 0.1110922
973.30 0.1110922
973.40 0.1110922
973.50 0.1109911
973.60 0.1109911
973.70 0.1109911
973.80 0.1109911
973.90 0.1109911
974.00 0.1109911
974.10 0.1109911
974.20 0.1109911
974.30 0.11089
974.40 0.11089
974.50 0.11089
974.60 0.11089
974.70 0.1107889
974.80 0.1107889
974.90 0.1107889
975.00 0.1107889
975.10 0.1106879
975.20 0.1106879
975.30 0.1106879
975.40 0.1106879
975.50 0.1105868
975.60 0.1105868
975.70 0.1105868
975.80 0.1105868
975.90 0.1104857
976.00 0.1104857
976.10 0.1104857
976.20 0.1104857
976.30 0.1103846
976.40 0.1103846
976.50 0.1103846
976.60 0.1103846
976.70 0.1102835
976.80 0.1102835
976.90 0.1102835
977.00 0.1102835
977.10 0.1101824
977.20 0.1101824
977.30 0.1100814
977.40 0.1100814
977.50 0.1099803
977.60 0.1099803
977.70 0.1099803
977.80 0.1098792
977.90 0.1098792
978.00 0.1097781
978.10 0.1097781
978.20 0.109677
978.30 0.109677
978.40 0.109677
978.50 0.1095759
978.60 0.1095759
978.70 0.1094748
978.80 0.1094748
978.90 0.1093738
979.00 0.1093738
979.10 0.1093738
979.20 0.1092727
979.30 0.1092727
979.40 0.1091716
979.50 0.1091716
979.60 0.1090705
979.70 0.1090705
979.80 0.1090705
979.90 0.1089694
980.00 0.1089694
980.10 0.1088683
980.20 0.1088683
980.30 0.1087673
980.40 0.1087673
980.50 0.1087673
980.60 0.1086662
980.70 0.1086662
980.80 0.1085651
980.90 0.1085651
981.00 0.108464
981.10 0.108464
981.20 0.108464
981.30 0.1083629
981.40 0.1083629
981.50 0.1082618
981.60 0.1082618
981.70 0.1081607
981.80 0.1081607
981.90 0.1081607
982.00 0.1080597
982.10 0.1079586
982.20 0.1079586
982.30 0.1078575
982.40 0.1078575
982.50 0.1077564
982.60 0.1076553
982.70 0.1076553
982.80 0.1075542
982.90 0.1075542
983.00 0.1074531
983.10 0.1073521
983.20 0.1073521
983.30 0.107251
983.40 0.107251
983.50 0.1071499
983.60 0.1070488
983.70 0.1070488
983.80 0.1069477
983.90 0.1069477
984.00 0.1068466
984.10 0.1067456
984.20 0.1067456
984.30 0.1066445
984.40 0.1066445
984.50 0.1065434
984.60 0.1064423
984.70 0.1064423
984.80 0.1063412
984.90 0.1062401
985.00 0.106139
985.10 0.106139
985.20 0.106038
985.30 0.1059369
985.40 0.1058358
985.50 0.1058358
985.60 0.1057347
985.70 0.1056336
985.80 0.1055325
985.90 0.1055325
986.00 0.1054315
986.10 0.1053304
986.20 0.1052293
986.30 0.1052293
986.40 0.1051282
986.50 0.1050271
986.60 0.104926
986.70 0.104926
986.80 0.1048249
986.90 0.1047239
987.00 0.1046228
987.10 0.1046228
987.20 0.1045217
987.30 0.1044206
987.40 0.1043195
987.50 0.1042184
987.60 0.1041173
987.70 0.1040163
987.80 0.1039152
987.90 0.1039152
988.00 0.1038141
988.10 0.103713
988.20 0.1036119
988.30 0.1035108
988.40 0.1034098
988.50 0.1033087
988.60 0.1032076
988.70 0.1031065
988.80 0.1030054
988.90 0.1029043
989.00 0.1028032
989.10 0.1027022
989.20 0.1026011
989.30 0.1025
989.40 0.1023989
989.50 0.1022978
989.60 0.1021967
989.70 0.1020957
989.80 0.1019946
989.90 0.1018935
990.00 0.1017924
990.10 0.1016913
990.20 0.1015902
990.30 0.1014891
990.40 0.1013881
990.50 0.101287
990.60 0.1011859
990.70 0.1010848
990.80 0.1009837
990.90 0.1008624
991.00 0.1007411
991.10 0.1006299
991.20 0.1005086
991.30 0.1003974
991.40 0.1002761
991.50 0.1001548
991.60 0.1000436
991.70 0.09992233
991.80 0.09981114
991.90 0.09968983
992.00 0.09956853
992.10 0.09944723
992.20 0.09931582
992.30 0.09919452
992.40 0.09906311
992.50 0.0989317
992.60 0.0988104
992.70 0.09866888
992.80 0.09852736
992.90 0.09838584
993.00 0.09824432
993.10 0.0981028
993.20 0.09796128
993.30 0.09781977
993.40 0.09767825
993.50 0.09753673
993.60 0.09739521
993.70 0.09725369
993.80 0.09711217
993.90 0.09697065
994.00 0.09682913
994.10 0.09668762
994.20 0.09655621
994.30 0.09641469
994.40 0.09627317
994.50 0.09613165
994.60 0.09599013
994.70 0.0958284
994.80 0.09567677
994.90 0.09551503
995.00 0.0953533
995.10 0.09519156
995.20 0.09503993
995.30 0.0948782
995.40 0.09471646
995.50 0.09455473
995.60 0.0944031
995.70 0.09423126
995.80 0.0940493
995.90 0.09387746
996.00 0.09370561
996.10 0.09352366
996.20 0.09335182
996.30 0.09317997
996.40 0.09299802
996.50 0.09282618
996.60 0.09265433
996.70 0.09247238
996.80 0.09230054
996.90 0.09212869
997.00 0.09195685
997.10 0.09176479
997.20 0.09157272
997.30 0.09138066
997.40 0.09119871
997.50 0.09100665
997.60 0.09081459
997.70 0.09061242
997.80 0.09040014
997.90 0.09019797
998.00 0.08998569
998.10 0.08977342
998.20 0.08957125
998.30 0.08935897
998.40 0.0891568
998.50 0.08894452
998.60 0.08873224
998.70 0.08853007
998.80 0.08831779
998.90 0.08810552
999.00 0.08790335
999.10 0.08769107
999.20 0.0874889
999.30 0.08727662
999.40 0.08707445
999.50 0.08686217
999.60 0.08666
999.70 0.08642751
999.80 0.08619501
999.90 0.08595241
1000.00 0.08571991
1000.10 0.08548742
1000.20 0.08524482
1000.30 0.08501232
1000.40 0.08477983
1000.50 0.08454733
1000.60 0.08430473
1000.70 0.08407223
1000.80 0.08383974
1000.90 0.08360724
1001.00 0.08336464
1001.10 0.08313214
1001.20 0.08289965
1001.30 0.08266715
1001.40 0.08243466
1001.50 0.08219205
1001.60 0.08195956
1001.70 0.08171696
1001.80 0.08147435
1001.90 0.08123175
1002.00 0.08098915
1002.10 0.08074654
1002.20 0.08050394
1002.30 0.08026134
1002.40 0.08001873
1002.50 0.07977613
1002.60 0.07953352
1002.70 0.07929092
1002.80 0.07904832
1002.90 0.07880571
1003.00 0.07856311
1003.10 0.07832051
1003.20 0.07810823
1003.30 0.07789595
1003.40 0.07768367
1003.50 0.07747139
1003.60 0.07725912
1003.70 0.07705695
1003.80 0.07684467
1003.90 0.07672337
1004.00 0.07662228
1004.10 0.07653131
1004.20 0.07644033
1004.30 0.07659196
1004.40 0.07683456
1004.50 0.07732988
1004.60 0.07814866
1004.70 0.07769378
1004.80 0.0768851
1004.90 0.07658185
1005.00 0.07629881
1005.10 0.07625838
1005.20 0.07630892
1005.30 0.07634935
1005.40 0.0763999
1005.50 0.07653131
1005.60 0.07669304
1005.70 0.07684467
1005.80 0.0770064
1005.90 0.07716814
1006.00 0.07731977
1006.10 0.0774815
1006.20 0.07766346
1006.30 0.07784541
1006.40 0.07803747
1006.50 0.07821942
1006.60 0.07841148
1006.70 0.07859344
1006.80 0.07877539
1006.90 0.07896745
1007.00 0.0791494
1007.10 0.07934146
1007.20 0.07952342
1007.30 0.07971548
1007.40 0.07989743
1007.50 0.08008949
1007.60 0.08027144
1007.70 0.0804534
1007.80 0.08062524
1007.90 0.08079708
1008.00 0.08096893
1008.10 0.08115088
1008.20 0.08132273
1008.30 0.08149457
1008.40 0.08166641
1008.50 0.08183826
1008.60 0.0820101
1008.70 0.08218195
1008.80 0.08235379
1008.90 0.08252563
1009.00 0.08269748
1009.10 0.08286932
1009.20 0.08304117
1009.30 0.08321301
1009.40 0.08339496
1009.50 0.08356681
1009.60 0.08373865
1009.70 0.08388017
1009.80 0.08402169
1009.90 0.08416321
1010.00 0.08430473
1010.10 0.08444625
1010.20 0.08458776
1010.30 0.08472928
1010.40 0.0848708
1010.50 0.08501232
1010.60 0.08515384
1010.70 0.08529536
1010.80 0.08543688
1010.90 0.0855784
1011.00 0.08571991
1011.10 0.08586143
1011.20 0.08600295
1011.30 0.08614447
1011.40 0.08628599
1011.50 0.0864174
1011.60 0.08655892
1011.70 0.08669033
1011.80 0.08681163
1011.90 0.08693293
1012.00 0.08705423
1012.10 0.08715532
1012.20 0.08726651
1012.30 0.0873676
1012.40 0.08747879
1012.50 0.08757987
1012.60 0.08769107
1012.70 0.08779215
1012.80 0.08790335
1012.90 0.08800443
1013.00 0.08811562
1013.10 0.08821671
1013.20 0.0883279
1013.30 0.08842899
1013.40 0.08853007
1013.50 0.08864127
1013.60 0.08874235
1013.70 0.08883333
1013.80 0.0889243
1013.90 0.08901528
1014.00 0.08909615
1014.10 0.08918712
1014.20 0.0892781
1014.30 0.08935897
1014.40 0.08944994
1014.50 0.08953081
1014.60 0.08962179
1014.70 0.08969255
1014.80 0.08976331
1014.90 0.08983407
1015.00 0.08990483
1015.10 0.08996548
1015.20 0.09003624
1015.30 0.090107
1015.40 0.09017775
1015.50 0.09024851
1015.60 0.09030916
1015.70 0.09037992
1015.80 0.09045068
1015.90 0.09052144
1016.00 0.09058209
1016.10 0.09065285
1016.20 0.09072361
1016.30 0.09079437
1016.40 0.09085502
1016.50 0.09092578
1016.60 0.09099654
1016.70 0.09105719
1016.80 0.09110773
1016.90 0.09116839
1017.00 0.09121893
1017.10 0.09126947
1017.20 0.0913099
1017.30 0.09136045
1017.40 0.09140088
1017.50 0.09145142
1017.60 0.09149186
1017.70 0.0915424
1017.80 0.09158283
1017.90 0.09163338
1018.00 0.09167381
1018.10 0.09171424
1018.20 0.09176479
1018.30 0.09180522
1018.40 0.09185576
1018.50 0.0918962
1018.60 0.09194674
1018.70 0.09197706
1018.80 0.09200739
1018.90 0.09203771
1019.00 0.09206804
1019.10 0.09209837
1019.20 0.09212869
1019.30 0.09215902
1019.40 0.09218934
1019.50 0.09221967
1019.60 0.09224999
1019.70 0.09228032
1019.80 0.09231064
1019.90 0.09234097
1020.00 0.09237129
1020.10 0.09241173
1020.20 0.09244205
1020.30 0.09247238
1020.40 0.0925027
1020.50 0.09253303
1020.60 0.09256336
1020.70 0.09258357
1020.80 0.09259368
1020.90 0.0926139
1021.00 0.09263412
1021.10 0.09265433
1021.20 0.09267455
1021.30 0.09268466
1021.40 0.09270487
1021.50 0.09272509
1021.60 0.09274531
1021.70 0.09276553
1021.80 0.09277563
1021.90 0.09279585
1022.00 0.09281607
1022.10 0.09282618
1022.20 0.09282618
1022.30 0.09283628
1022.40 0.09284639
1022.50 0.0928565
1022.60 0.0928565
1022.70 0.09286661
1022.80 0.09287672
1022.90 0.09288683
1023.00 0.09288683
1023.10 0.09289694
1023.20 0.09290704
1023.30 0.09291715
1023.40 0.09291715
1023.50 0.09292726
1023.60 0.09293737
1023.70 0.09293737
1023.80 0.09294748
1023.90 0.09295759
1024.00 0.0929677
1024.10 0.0929677
1024.20 0.0929778
1024.30 0.09298791
1024.40 0.09299802
1024.50 0.09299802
1024.60 0.09300813
1024.70 0.09300813
1024.80 0.09300813
1024.90 0.09299802
1025.00 0.09299802
1025.10 0.09299802
1025.20 0.09299802
1025.30 0.09298791
1025.40 0.09298791
1025.50 0.09298791
1025.60 0.0929778
1025.70 0.0929778
1025.80 0.0929778
1025.90 0.0929677
1026.00 0.0929677
1026.10 0.0929677
1026.20 0.09295759
1026.30 0.09295759
1026.40 0.09295759
1026.50 0.09294748
1026.60 0.09294748
1026.70 0.09294748
1026.80 0.09294748
1026.90 0.09293737
1027.00 0.09293737
1027.10 0.09292726
1027.20 0.09290704
1027.30 0.09289694
1027.40 0.09288683
1027.50 0.09286661
1027.60 0.0928565
1027.70 0.09284639
1027.80 0.09282618
1027.90 0.09281607
1028.00 0.09280596
1028.10 0.09278574
1028.20 0.09277563
1028.30 0.09275542
1028.40 0.09274531
1028.50 0.0927352
1028.60 0.09271498
1028.70 0.09270487
1028.80 0.09269477
1028.90 0.09267455
1029.00 0.09266444
1029.10 0.09265433
1029.20 0.09263412
1029.30 0.09262401
1029.40 0.0926139
1029.50 0.09259368
1029.60 0.09258357
1029.70 0.09257346
1029.80 0.09255325
1029.90 0.09254314
1030.00 0.09253303
1030.10 0.09251281
1030.20 0.0925027
1030.30 0.0924926
1030.40 0.09247238
1030.50 0.09246227
1030.60 0.09245216
1030.70 0.09243195
1030.80 0.09242184
1030.90 0.09241173
1031.00 0.09239151
1031.10 0.0923814
1031.20 0.09237129
1031.30 0.09235108
1031.40 0.09234097
1031.50 0.09233086
1031.60 0.09232075
1031.70 0.09230054
1031.80 0.09229043
1031.90 0.09228032
1032.00 0.0922601
1032.10 0.09223988
1032.20 0.09221967
1032.30 0.09219945
1032.40 0.09217923
1032.50 0.09214891
1032.60 0.09212869
1032.70 0.09210847
1032.80 0.09208826
1032.90 0.09206804
1033.00 0.09203771
1033.10 0.0920175
1033.20 0.09199728
1033.30 0.09197706
1033.40 0.09195685
1033.50 0.09193663
1033.60 0.0919063
1033.70 0.09188609
1033.80 0.09186587
1033.90 0.09184565
1034.00 0.09182544
1034.10 0.09180522
1034.20 0.091785
1034.30 0.09175468
1034.40 0.09173446
1034.50 0.09171424
1034.60 0.09169403
1034.70 0.09167381
1034.80 0.09165359
1034.90 0.09162327
1035.00 0.09160305
1035.10 0.09158283
1035.20 0.09156262
1035.30 0.0915424
1035.40 0.09152218
1035.50 0.09149186
1035.60 0.09147164
1035.70 0.09145142
1035.80 0.09143121
1035.90 0.09141099
1036.00 0.09139077
1036.10 0.09137056
1036.20 0.09134023
1036.30 0.09132001
1036.40 0.0912998
1036.50 0.09127958
1036.60 0.09125936
1036.70 0.09123914
1036.80 0.09121893
1036.90 0.0911886
1037.00 0.09116839
1037.10 0.09114817
1037.20 0.09111784
1037.30 0.09108752
1037.40 0.0910673
1037.50 0.09103698
1037.60 0.09101676
1037.70 0.09098643
1037.80 0.09095611
1037.90 0.09093589
1038.00 0.09090557
1038.10 0.09087524
1038.20 0.09085502
1038.30 0.0908247
1038.40 0.09080448
1038.50 0.09077415
1038.60 0.09074383
1038.70 0.09072361
1038.80 0.09069329
1038.90 0.09067307
1039.00 0.09064274
1039.10 0.09061242
1039.20 0.0905922
1039.30 0.09056188
1039.40 0.09054166
1039.50 0.09051133
1039.60 0.09048101
1039.70 0.09046079
1039.80 0.09043047
1039.90 0.09041025
1040.00 0.09037992
1040.10 0.0903496
1040.20 0.09032938
1040.30 0.09029906
1040.40 0.09027884
1040.50 0.09024851
1040.60 0.09021819
1040.70 0.09019797
1040.80 0.09016765
1040.90 0.09014743
1041.00 0.0901171
1041.10 0.09009689
1041.20 0.09006656
1041.30 0.09003624
1041.40 0.09001602
1041.50 0.08998569
1041.60 0.08996548
1041.70 0.08993515
1041.80 0.08990483
1041.90 0.08988461
1042.00 0.08985428
1042.10 0.08982396
1042.20 0.08980374
1042.30 0.08977342
1042.40 0.08974309
1042.50 0.08971276
1042.60 0.08968244
1042.70 0.08965211
1042.80 0.08962179
1042.90 0.08959146
1043.00 0.08957125
1043.10 0.08954092
1043.20 0.08951059
1043.30 0.08948027
1043.40 0.08944994
1043.50 0.08941962
1043.60 0.08938929
1043.70 0.08935897
1043.80 0.08933875
1043.90 0.08930843
1044.00 0.0892781
1044.10 0.08924777
1044.20 0.08921745
1044.30 0.08918712
1044.40 0.0891568
1044.50 0.08913658
1044.60 0.08910626
1044.70 0.08907593
1044.80 0.0890456
1044.90 0.08901528
1045.00 0.08898495
1045.10 0.08895463
1045.20 0.08893441
1045.30 0.08890409
1045.40 0.08887376
1045.50 0.08884344
1045.60 0.08881311
1045.70 0.08878278
1045.80 0.08876257
1045.90 0.08873224
1046.00 0.08870192
1046.10 0.08867159
1046.20 0.08864127
1046.30 0.08861094
1046.40 0.08858061
1046.50 0.0885604
1046.60 0.08853007
1046.70 0.08849975
1046.80 0.08846942
1046.90 0.0884391
1047.00 0.08840877
1047.10 0.08837844
1047.20 0.08834812
1047.30 0.08831779
1047.40 0.08828747
1047.50 0.08825714
1047.60 0.08822682
1047.70 0.08819649
1047.80 0.08816617
1047.90 0.08813584
1048.00 0.08810552
1048.10 0.08807519
1048.20 0.08804487
1048.30 0.08801454
1048.40 0.08798421
1048.50 0.08795389
1048.60 0.08792356
1048.70 0.08789324
1048.80 0.08786291
1048.90 0.08783259
1049.00 0.08780226
1049.10 0.08777194
1049.20 0.08774161
1049.30 0.08771129
1049.40 0.08768096
1049.50 0.08765063
1049.60 0.08762031
1049.70 0.08758998
1049.80 0.08755966
1049.90 0.08752933
1050.00 0.08749901
1050.10 0.08746868
1050.20 0.08743836
1050.30 0.08740803
1050.40 0.08737771
1050.50 0.08734738
1050.60 0.08731705
1050.70 0.08728673
1050.80 0.0872564
1050.90 0.08722608
1051.00 0.08719575
1051.10 0.08716543
1051.20 0.0871351
1051.30 0.08710478
1051.40 0.08707445
1051.50 0.08704413
1051.60 0.0870138
1051.70 0.08698347
1051.80 0.08695315
1051.90 0.08692282
1052.00 0.0868925
1052.10 0.08685206
1052.20 0.08682174
1052.30 0.08679141
1052.40 0.08676109
1052.50 0.08673076
1052.60 0.08669033
1052.70 0.08666
1052.80 0.08662968
1052.90 0.08659935
1053.00 0.08655892
1053.10 0.08652859
1053.20 0.08649827
1053.30 0.08646794
1053.40 0.08642751
1053.50 0.08639718
1053.60 0.08636686
1053.70 0.08633653
1053.80 0.08630621
1053.90 0.08626577
1054.00 0.08623545
1054.10 0.08620512
1054.20 0.0861748
1054.30 0.08613436
1054.40 0.08610404
1054.50 0.08607371
1054.60 0.08604339
1054.70 0.08601306
1054.80 0.08597263
1054.90 0.0859423
1055.00 0.08591198
1055.10 0.08588165
1055.20 0.08585132
1055.30 0.08581089
1055.40 0.08578057
1055.50 0.08575024
1055.60 0.08571991
1055.70 0.08567948
1055.80 0.08564916
1055.90 0.08561883
1056.00 0.0855885
1056.10 0.08555818
1056.20 0.08551774
1056.30 0.08548742
1056.40 0.08545709
1056.50 0.08542677
1056.60 0.08539644
1056.70 0.08536612
1056.80 0.08532568
1056.90 0.08529536
1057.00 0.08526503
1057.10 0.0852246
1057.20 0.08519427
1057.30 0.08516395
1057.40 0.08512351
1057.50 0.08509319
1057.60 0.08505275
1057.70 0.08502243
1057.80 0.084982
1057.90 0.08495167
1058.00 0.08491124
1058.10 0.08488091
1058.20 0.08484048
1058.30 0.08481015
1058.40 0.08476972
1058.50 0.08473939
1058.60 0.08469896
1058.70 0.08466863
1058.80 0.0846282
1058.90 0.08459787
1059.00 0.08456755
1059.10 0.08452711
1059.20 0.08449679
1059.30 0.08445635
1059.40 0.08442603
1059.50 0.0843856
1059.60 0.08435527
1059.70 0.08431484
1059.80 0.08428451
1059.90 0.08425418
1060.00 0.08421375
1060.10 0.08418343
1060.20 0.08414299
1060.30 0.08411267
1060.40 0.08407223
1060.50 0.08404191
1060.60 0.08400147
1060.70 0.08397115
1060.80 0.08394082
1060.90 0.08390039
1061.00 0.08387006
1061.10 0.08382963
1061.20 0.0837993
1061.30 0.08375887
1061.40 0.08372854
1061.50 0.08368811
1061.60 0.08365778
1061.70 0.08362746
1061.80 0.08358703
1061.90 0.0835567
1062.00 0.08351627
1062.10 0.08347583
1062.20 0.08344551
1062.30 0.08340507
1062.40 0.08336464
1062.50 0.0833242
1062.60 0.08328377
1062.70 0.08324334
1062.80 0.0832029
1062.90 0.08316247
1063.00 0.08313214
1063.10 0.08309171
1063.20 0.08305128
1063.30 0.08301084
1063.40 0.08297041
1063.50 0.08292997
1063.60 0.08288954
1063.70 0.08284911
1063.80 0.08281878
1063.90 0.08277835
1064.00 0.08273791
1064.10 0.08269748
1064.20 0.08265704
1064.30 0.08261661
1064.40 0.08257618
1064.50 0.08254585
1064.60 0.08250542
1064.70 0.08246498
1064.80 0.08242455
1064.90 0.08238412
1065.00 0.08234368
1065.10 0.08230325
1065.20 0.08227292
1065.30 0.08223249
1065.40 0.08219205
1065.50 0.08215162
1065.60 0.08211119
1065.70 0.08207075
1065.80 0.08203032
1065.90 0.08199999
1066.00 0.08195956
1066.10 0.08191913
1066.20 0.08187869
1066.30 0.08183826
1066.40 0.08179782
1066.50 0.0817675
1066.60 0.08172706
1066.70 0.08168663
1066.80 0.0816462
1066.90 0.08160576
1067.00 0.08156533
1067.10 0.0815249
1067.20 0.08147435
1067.30 0.08143392
1067.40 0.08138338
1067.50 0.08133283
1067.60 0.0812924
1067.70 0.08124186
1067.80 0.08120142
1067.90 0.08115088
1068.00 0.08111045
1068.10 0.08105991
1068.20 0.08100936
1068.30 0.08096893
1068.40 0.08091839
1068.50 0.08087795
1068.60 0.08082741
1068.70 0.08077687
1068.80 0.08073643
1068.90 0.08068589
1069.00 0.08064546
1069.10 0.08059491
1069.20 0.08055448
1069.30 0.08050394
1069.40 0.0804534
1069.50 0.08041296
1069.60 0.08036242
1069.70 0.08032199
1069.80 0.08027144
1069.90 0.08023101
1070.00 0.08018047
1070.10 0.08012992
1070.20 0.08008949
1070.30 0.08003895
1070.40 0.07999851
1070.50 0.07994797
1070.60 0.07990754
1070.70 0.079857
1070.80 0.07981656
1070.90 0.07976602
1071.00 0.07972559
1071.10 0.07967504
1071.20 0.0796245
1071.30 0.07958407
1071.40 0.07953352
1071.50 0.07949309
1071.60 0.07944255
1071.70 0.07940211
1071.80 0.07935157
1071.90 0.07931114
1072.00 0.0792606
1072.10 0.07921005
1072.20 0.0791494
1072.30 0.07909886
1072.40 0.07904832
1072.50 0.07898767
1072.60 0.07893712
1072.70 0.07887647
1072.80 0.07882593
1072.90 0.07877539
1073.00 0.07871474
1073.10 0.0786642
1073.20 0.07860354
1073.30 0.078553
1073.40 0.07850246
1073.50 0.07844181
1073.60 0.07838116
1073.70 0.07832051
1073.80 0.07825986
1073.90 0.07819921
1074.00 0.07812845
1074.10 0.07806779
1074.20 0.07800714
1074.30 0.07794649
1074.40 0.07788584
1074.50 0.07782519
1074.60 0.07776454
1074.70 0.07770389
1074.80 0.07764324
1074.90 0.07757248
1075.00 0.07751183
1075.10 0.07745118
1075.20 0.07739053
1075.30 0.07732988
1075.40 0.07726922
1075.50 0.07720857
1075.60 0.07714792
1075.70 0.07708727
1075.80 0.07702662
1075.90 0.07696597
1076.00 0.07689521
1076.10 0.07683456
1076.20 0.07677391
1076.30 0.07671326
1076.40 0.07665261
1076.50 0.07659196
1076.60 0.07653131
1076.70 0.07647065
1076.80 0.07641
1076.90 0.07634935
1077.00 0.0762887
1077.10 0.07621794
1077.20 0.07614718
1077.30 0.07607642
1077.40 0.07600566
1077.50 0.07593491
1077.60 0.07586415
1077.70 0.07578328
1077.80 0.07571252
1077.90 0.07563165
1078.00 0.07556089
1078.10 0.07548002
1078.20 0.07540926
1078.30 0.0753284
1078.40 0.07524753
1078.50 0.07517677
1078.60 0.0750959
1078.70 0.07502514
1078.80 0.07494427
1078.90 0.07487351
1079.00 0.07479265
1079.10 0.07472189
1079.20 0.07464102
1079.30 0.07457026
1079.40 0.07448939
1079.50 0.07441863
1079.60 0.07432766
1079.70 0.07423668
1079.80 0.0741457
1079.90 0.07406484
1080.00 0.07397386
1080.10 0.07388288
1080.20 0.07379191
1080.30 0.07371104
1080.40 0.07362006
1080.50 0.07352909
1080.60 0.07344822
1080.70 0.07335724
1080.80 0.07326627
1080.90 0.07317529
1081.00 0.07309442
1081.10 0.07300345
1081.20 0.07291247
1081.30 0.0728316
1081.40 0.07274063
1081.50 0.07264965
1081.60 0.07255867
1081.70 0.07245759
1081.80 0.07236661
1081.90 0.07226553
1082.00 0.07217455
1082.10 0.07207347
1082.20 0.07196227
1082.30 0.07186119
1082.40 0.0717601
1082.50 0.07164891
1082.60 0.07154782
1082.70 0.07144674
1082.80 0.07134566
1082.90 0.07123446
1083.00 0.07113338
1083.10 0.07103229
1083.20 0.07093121
1083.30 0.07082001
1083.40 0.07071893
1083.50 0.07061784
1083.60 0.07049654
1083.70 0.07038535
1083.80 0.07027416
1083.90 0.07015285
1084.00 0.07004166
1084.10 0.06993047
1084.20 0.06980917
1084.30 0.06969797
1084.40 0.06958678
1084.50 0.06946548
1084.60 0.06933407
1084.70 0.06920266
1084.80 0.06908136
1084.90 0.06894995
1085.00 0.06881854
1085.10 0.06868712
1085.20 0.06856582
1085.30 0.06843441
1085.40 0.068303
1085.50 0.06817159
1085.60 0.06805029
1085.70 0.06791888
1085.80 0.06778747
1085.90 0.06765606
1086.00 0.06753476
1086.10 0.06740335
1086.20 0.06727194
1086.30 0.06714053
1086.40 0.06701923
1086.50 0.06688782
1086.60 0.06673619
1086.70 0.06659467
1086.80 0.06645315
1086.90 0.06631163
1087.00 0.06617011
1087.10 0.06601849
1087.20 0.06586686
1087.30 0.06570512
1087.40 0.0655535
1087.50 0.06540187
1087.60 0.06525024
1087.70 0.06509861
1087.80 0.06493688
1087.90 0.06478525
1088.00 0.06463362
1088.10 0.064482
1088.20 0.06433037
1088.30 0.06416863
1088.40 0.06401701
1088.50 0.06385527
1088.60 0.06368343
1088.70 0.06351158
1088.80 0.06333974
1088.90 0.06315779
1089.00 0.06298594
1089.10 0.0628141
1089.20 0.06263215
1089.30 0.0624603
1089.40 0.06228846
1089.50 0.06211661
1089.60 0.06193466
1089.70 0.06176282
1089.80 0.06159097
1089.90 0.06141913
1090.00 0.06124728
1090.10 0.06106533
1090.20 0.06089349
1090.30 0.06072164
1090.40 0.0605498
1090.50 0.06036785
1090.60 0.06016568
1090.70 0.05996351
1090.80 0.05977145
1090.90 0.05956928
1091.00 0.05937721
1091.10 0.05917504
1091.20 0.05897288
1091.30 0.05878081
1091.40 0.05857864
1091.50 0.05837647
1091.60 0.05818441
1091.70 0.05798224
1091.80 0.05779018
1091.90 0.05758801
1092.00 0.05738584
1092.10 0.05715335
1092.20 0.05693096
1092.30 0.05669847
1092.40 0.05647608
1092.50 0.05624359
1092.60 0.05601109
1092.70 0.0557786
1092.80 0.05553599
1092.90 0.05529339
1093.00 0.05505078
1093.10 0.0548284
1093.20 0.05467677
1093.30 0.05454536
1093.40 0.05479807
1093.50 0.05499013
1093.60 0.05454536
1093.70 0.05454536
1093.80 0.05466666
1093.90 0.05481829
1094.00 0.05503057
1094.10 0.05524285
1094.20 0.05545512
1094.30 0.05565729
1094.40 0.05584935
1094.50 0.05604142
1094.60 0.05623348
1094.70 0.05642554
1094.80 0.0566176
1094.90 0.05680966
1095.00 0.0569815
1095.10 0.05714324
1095.20 0.05730498
1095.30 0.05746671
1095.40 0.05762845
1095.50 0.05778007
1095.60 0.05794181
1095.70 0.05810355
1095.80 0.05826528
1095.90 0.05842702
1096.00 0.05857864
1096.10 0.05874038
1096.20 0.05890212
1096.30 0.05906385
1096.40 0.05921548
1096.50 0.05936711
1096.60 0.05951873
1096.70 0.05966025
1096.80 0.05980177
1096.90 0.05994329
1097.00 0.06008481
1097.10 0.06020611
1097.20 0.06033752
1097.30 0.06046893
1097.40 0.06059023
1097.50 0.06072164
1097.60 0.06084294
1097.70 0.06097435
1097.80 0.06110576
1097.90 0.06122707
1098.00 0.06135848
1098.10 0.06147978
1098.20 0.06161119
1098.30 0.06173249
1098.40 0.0618639
1098.50 0.0619852
1098.60 0.06208629
1098.70 0.06218737
1098.80 0.06229857
1098.90 0.06239965
1099.00 0.06250073
1099.10 0.06261193
1099.20 0.06271301
1099.30 0.0628141
1099.40 0.06292529
1099.50 0.06302638
1099.60 0.06312746
1099.70 0.06322855
1099.80 0.06333974
1099.90 0.06344082
1100.00 0.06354191
1100.10 0.06364299
1100.20 0.06375419
1100.30 0.06385527
1100.40 0.06395636
1100.50 0.06405744
1100.60 0.06413831
1100.70 0.06421918
1100.80 0.06430004
1100.90 0.06438091
1101.00 0.06446178
1101.10 0.06454265
1101.20 0.06463362
1101.30 0.06471449
1101.40 0.06479536
1101.50 0.06487623
1101.60 0.0649571
1101.70 0.06503796
1101.80 0.06511883
1101.90 0.0651997
1102.00 0.06528057
1102.10 0.06535133
1102.20 0.06543219
1102.30 0.06550295
1102.40 0.06557371
1102.50 0.06564447
1102.60 0.06570512
1102.70 0.06576577
1102.80 0.06582642
1102.90 0.06588708
1103.00 0.06595784
1103.10 0.06601849
1103.20 0.06607914
1103.30 0.06613979
1103.40 0.06621055
1103.50 0.06626109
1103.60 0.06631163
1103.70 0.06636217
1103.80 0.06641272
1103.90 0.06646326
1104.00 0.0665138
1104.10 0.06656434
1104.20 0.06661489
1104.30 0.06666543
1104.40 0.06671597
1104.50 0.06676651
1104.60 0.06681706
1104.70 0.0668676
1104.80 0.06691814
1104.90 0.06696868
1105.00 0.06701923
1105.10 0.06706977
1105.20 0.06712031
1105.30 0.06717085
1105.40 0.0672214
1105.50 0.06726183
1105.60 0.06730226
1105.70 0.0673427
1105.80 0.06737302
1105.90 0.06741346
1106.00 0.06744378
1106.10 0.06748422
1106.20 0.06752465
1106.30 0.06755498
1106.40 0.06759541
1106.50 0.06762573
1106.60 0.06766617
1106.70 0.0677066
1106.80 0.06773693
1106.90 0.06777736
1107.00 0.06780769
1107.10 0.06783801
1107.20 0.06786834
1107.30 0.06789866
1107.40 0.06792899
1107.50 0.06795931
1107.60 0.06797953
1107.70 0.06799975
1107.80 0.06803007
1107.90 0.06805029
1108.00 0.06807051
1108.10 0.06809072
1108.20 0.06812105
1108.30 0.06814127
1108.40 0.06816148
1108.50 0.0681817
1108.60 0.06821203
1108.70 0.06823224
1108.80 0.06825246
1108.90 0.06827268
1109.00 0.068303
1109.10 0.06832322
1109.20 0.06834344
1109.30 0.06837376
1109.40 0.06839398
1109.50 0.0684142
1109.60 0.0684243
1109.70 0.06843441
1109.80 0.06844452
1109.90 0.06846474
1110.00 0.06847485
1110.10 0.06848496
1110.20 0.06849506
1110.30 0.06850517
1110.40 0.06852539
1110.50 0.0685355
1110.60 0.06854561
1110.70 0.06855571
1110.80 0.06856582
1110.90 0.06858604
1111.00 0.06859615
1111.10 0.06860626
1111.20 0.06861637
1111.30 0.06862647
1111.40 0.06864669
1111.50 0.0686568
1111.60 0.06866691
1111.70 0.06867702
1111.80 0.06868712
1111.90 0.06870734
1112.00 0.06871745
1112.10 0.06871745
1112.20 0.06872756
1112.30 0.06872756
1112.40 0.06873767
1112.50 0.06873767
1112.60 0.06874778
1112.70 0.06874778
1112.80 0.06875788
1112.90 0.06875788
1113.00 0.06876799
1113.10 0.06876799
1113.20 0.0687781
1113.30 0.0687781
1113.40 0.06878821
1113.50 0.06878821
1113.60 0.06878821
1113.70 0.06878821
1113.80 0.06878821
1113.90 0.0687781
1114.00 0.0687781
1114.10 0.0687781
1114.20 0.0687781
1114.30 0.06876799
1114.40 0.06876799
1114.50 0.06876799
1114.60 0.06876799
1114.70 0.06876799
1114.80 0.06875788
1114.90 0.06875788
1115.00 0.06875788
1115.10 0.06875788
1115.20 0.06875788
1115.30 0.06874778
1115.40 0.06874778
1115.50 0.06874778
1115.60 0.06874778
1115.70 0.06874778
1115.80 0.06873767
1115.90 0.06873767
1116.00 0.06873767
1116.10 0.06873767
1116.20 0.06873767
1116.30 0.06872756
1116.40 0.06872756
1116.50 0.06872756
1116.60 0.06872756
1116.70 0.06871745
1116.80 0.06871745
1116.90 0.06871745
1117.00 0.06871745
1117.10 0.06870734
1117.20 0.06869723
1117.30 0.06868712
1117.40 0.06867702
1117.50 0.06866691
1117.60 0.0686568
1117.70 0.06864669
1117.80 0.06863658
1117.90 0.06862647
1118.00 0.06861637
1118.10 0.06860626
1118.20 0.06859615
1118.30 0.06858604
1118.40 0.06857593
1118.50 0.06856582
1118.60 0.06855571
1118.70 0.06854561
1118.80 0.0685355
1118.90 0.06852539
1119.00 0.06851528
1119.10 0.06850517
1119.20 0.06849506
1119.30 0.06848496
1119.40 0.06847485
1119.50 0.06846474
1119.60 0.06845463
1119.70 0.06844452
1119.80 0.06843441
1119.90 0.0684243
1120.00 0.0684142
1120.10 0.06840409
1120.20 0.06839398
1120.30 0.06838387
1120.40 0.06837376
1120.50 0.06836365
1120.60 0.06835355
1120.70 0.06834344
1120.80 0.06833333
1120.90 0.06832322
1121.00 0.06831311
1121.10 0.068303
1121.20 0.06829289
1121.30 0.06828279
1121.40 0.06828279
1121.50 0.06827268
1121.60 0.06826257
1121.70 0.06825246
1121.80 0.06824235
1121.90 0.06823224
1122.00 0.06822213
1122.10 0.06820192
1122.20 0.06819181
1122.30 0.06817159
1122.40 0.06816148
1122.50 0.06814127
1122.60 0.06813116
1122.70 0.06811094
1122.80 0.06810083
1122.90 0.06808062
1123.00 0.06807051
1123.10 0.06805029
1123.20 0.06804018
1123.30 0.06801997
1123.40 0.06800986
1123.50 0.06798964
1123.60 0.06797953
1123.70 0.06795931
1123.80 0.06794921
1123.90 0.06792899
1124.00 0.06791888
1124.10 0.06789866
1124.20 0.06788855
1124.30 0.06786834
1124.40 0.06785823
1124.50 0.06783801
1124.60 0.0678279
1124.70 0.06780769
1124.80 0.06779758
1124.90 0.06778747
1125.00 0.06776725
1125.10 0.06775714
1125.20 0.06773693
1125.30 0.06772682
1125.40 0.0677066
1125.50 0.06769649
1125.60 0.06767628
1125.70 0.06766617
1125.80 0.06764595
1125.90 0.06763584
1126.00 0.06761563
1126.10 0.06760552
1126.20 0.0675853
1126.30 0.06757519
1126.40 0.06755498
1126.50 0.06754487
1126.60 0.06752465
1126.70 0.06751454
1126.80 0.06749432
1126.90 0.06748422
1127.00 0.06747411
1127.10 0.06745389
1127.20 0.06743367
1127.30 0.06741346
1127.40 0.06740335
1127.50 0.06738313
1127.60 0.06736291
1127.70 0.0673427
1127.80 0.06733259
1127.90 0.06731237
1128.00 0.06729215
1128.10 0.06727194
1128.20 0.06726183
1128.30 0.06724161
1128.40 0.0672214
1128.50 0.06720118
1128.60 0.06719107
1128.70 0.06717085
1128.80 0.06715064
1128.90 0.06713042
1129.00 0.06712031
1129.10 0.06710009
1129.20 0.06707988
1129.30 0.06705966
1129.40 0.06704955
1129.50 0.06702933
1129.60 0.06700912
1129.70 0.0669889
1129.80 0.06697879
1129.90 0.06695857
1130.00 0.06693836
1130.10 0.06691814
1130.20 0.06690803
1130.30 0.06688782
1130.40 0.0668676
1130.50 0.06685749
1130.60 0.06683727
1130.70 0.06681706
1130.80 0.06679684
1130.90 0.06678673
1131.00 0.06676651
1131.10 0.0667463
1131.20 0.06672608
1131.30 0.06671597
1131.40 0.06669575
1131.50 0.06667554
1131.60 0.06665532
1131.70 0.06664521
1131.80 0.06662499
1131.90 0.06660478
1132.00 0.06659467
1132.10 0.06657445
1132.20 0.06655424
1132.30 0.06653402
1132.40 0.0665138
1132.50 0.06649358
1132.60 0.06647337
1132.70 0.06645315
1132.80 0.06643293
1132.90 0.06642283
1133.00 0.06640261
1133.10 0.06638239
1133.20 0.06636217
1133.30 0.06634196
1133.40 0.06632174
1133.50 0.06630152
1133.60 0.06628131
1133.70 0.06626109
1133.80 0.06625098
1133.90 0.06623076
1134.00 0.06621055
1134.10 0.06619033
1134.20 0.06617011
1134.30 0.0661499
1134.40 0.06612968
1134.50 0.06610946
1134.60 0.06609935
1134.70 0.06607914
1134.80 0.06605892
1134.90 0.0660387
1135.00 0.06601849
1135.10 0.06599827
1135.20 0.06597805
1135.30 0.06595784
1135.40 0.06594773
1135.50 0.06592751
1135.60 0.06590729
1135.70 0.06588708
1135.80 0.06586686
1135.90 0.06584664
1136.00 0.06582642
1136.10 0.06580621
1136.20 0.0657961
1136.30 0.06577588
1136.40 0.06575567
1136.50 0.06573545
1136.60 0.06571523
1136.70 0.06569501
1136.80 0.0656748
1136.90 0.06565458
1137.00 0.06564447
1137.10 0.06562426
1137.20 0.06560404
1137.30 0.06558382
1137.40 0.0655636
1137.50 0.06554339
1137.60 0.06552317
1137.70 0.06550295
1137.80 0.06548274
1137.90 0.06546252
1138.00 0.0654423
1138.10 0.06542209
1138.20 0.06540187
1138.30 0.06539176
1138.40 0.06537154
1138.50 0.06535133
1138.60 0.06533111
1138.70 0.06531089
1138.80 0.06529068
1138.90 0.06527046
1139.00 0.06525024
1139.10 0.06523002
1139.20 0.06520981
1139.30 0.06518959
1139.40 0.06516937
1139.50 0.06514916
1139.60 0.06513905
1139.70 0.06511883
1139.80 0.06509861
1139.90 0.0650784
1140.00 0.06505818
1140.10 0.06503796
1140.20 0.06501775
1140.30 0.06499753
1140.40 0.06497731
1140.50 0.0649571
1140.60 0.06493688
1140.70 0.06491666
1140.80 0.06490655
1140.90 0.06488634
1141.00 0.06486612
1141.10 0.0648459
1141.20 0.06482569
1141.30 0.06480547
1141.40 0.06478525
1141.50 0.06476503
1141.60 0.06474482
1141.70 0.0647246
1141.80 0.06470438
1141.90 0.06468417
1142.00 0.06467406
1142.10 0.06465384
1142.20 0.06463362
1142.30 0.06461341
1142.40 0.06459319
1142.50 0.06457297
1142.60 0.06455276
1142.70 0.06453254
1142.80 0.06451232
1142.90 0.06449211
1143.00 0.06447189
1143.10 0.06445167
1143.20 0.06443145
1143.30 0.06441124
1143.40 0.06439102
1143.50 0.0643708
1143.60 0.06435059
1143.70 0.06433037
1143.80 0.06431015
1143.90 0.06428994
1144.00 0.06427983
1144.10 0.06425961
1144.20 0.06423939
1144.30 0.06421918
1144.40 0.06419896
1144.50 0.06417874
1144.60 0.06415853
1144.70 0.06413831
1144.80 0.06411809
1144.90 0.06409787
1145.00 0.06407766
1145.10 0.06405744
1145.20 0.06403722
1145.30 0.06401701
1145.40 0.06399679
1145.50 0.06397657
1145.60 0.06395636
1145.70 0.06394625
1145.80 0.06392603
1145.90 0.06390581
1146.00 0.0638856
1146.10 0.06386538
1146.20 0.06384516
1146.30 0.06382495
1146.40 0.06380473
1146.50 0.06378451
1146.60 0.06376429
1146.70 0.06374408
1146.80 0.06372386
1146.90 0.06370364
1147.00 0.06368343
1147.10 0.06366321
1147.20 0.06364299
1147.30 0.06363288
1147.40 0.06361267
1147.50 0.06359245
1147.60 0.06357223
1147.70 0.06355202
1147.80 0.0635318
1147.90 0.06351158
1148.00 0.06349137
1148.10 0.06347115
1148.20 0.06345093
1148.30 0.06343072
1148.40 0.0634105
1148.50 0.06339028
1148.60 0.06337006
1148.70 0.06334985
1148.80 0.06332963
1148.90 0.06330941
1149.00 0.0632892
1149.10 0.06327909
1149.20 0.06325887
1149.30 0.06323865
1149.40 0.06321844
1149.50 0.06319822
1149.60 0.063178
1149.70 0.06315779
1149.80 0.06313757
1149.90 0.06311735
1150.00 0.06309714
1150.10 0.06307692
1150.20 0.0630567
1150.30 0.06303648
1150.40 0.06301627
1150.50 0.06299605
1150.60 0.06297583
1150.70 0.06296572
1150.80 0.06294551
1150.90 0.06292529
1151.00 0.06290507
1151.10 0.06288486
1151.20 0.06286464
1151.30 0.06284442
1151.40 0.06282421
1151.50 0.06280399
1151.60 0.06278377
1151.70 0.06276356
1151.80 0.06274334
1151.90 0.06272312
1152.00 0.0627029
1152.10 0.0626928
1152.20 0.06267258
1152.30 0.06265236
1152.40 0.06263215
1152.50 0.06261193
1152.60 0.06259171
1152.70 0.06257149
1152.80 0.06255128
1152.90 0.06253106
1153.00 0.06251084
1153.10 0.06249063
1153.20 0.06247041
1153.30 0.06245019
1153.40 0.06242998
1153.50 0.06240976
1153.60 0.06239965
1153.70 0.06237943
1153.80 0.06235922
1153.90 0.062339
1154.00 0.06231878
1154.10 0.06229857
1154.20 0.06227835
1154.30 0.06225813
1154.40 0.06223791
1154.50 0.0622177
1154.60 0.06219748
1154.70 0.06217726
1154.80 0.06215705
1154.90 0.06213683
1155.00 0.06212672
1155.10 0.0621065
1155.20 0.06208629
1155.30 0.06206607
1155.40 0.06204585
1155.50 0.06202564
1155.60 0.06200542
1155.70 0.0619852
1155.80 0.06196499
1155.90 0.06194477
1156.00 0.06192455
1156.10 0.06190433
1156.20 0.06189423
1156.30 0.06187401
1156.40 0.06185379
1156.50 0.06183358
1156.60 0.06181336
1156.70 0.06179314
1156.80 0.06177292
1156.90 0.06175271
1157.00 0.06173249
1157.10 0.06171227
1157.20 0.06169206
1157.30 0.06167184
1157.40 0.06166173
1157.50 0.06164151
1157.60 0.0616213
1157.70 0.06160108
1157.80 0.06158086
1157.90 0.06156065
1158.00 0.06154043
1158.10 0.06152021
1158.20 0.0615
1158.30 0.06147978
1158.40 0.06145956
1158.50 0.06144945
1158.60 0.06142924
1158.70 0.06140902
1158.80 0.0613888
1158.90 0.06136859
1159.00 0.06134837
1159.10 0.06132815
1159.20 0.06130793
1159.30 0.06128772
1159.40 0.0612675
1159.50 0.06125739
1159.60 0.06123717
1159.70 0.06121696
1159.80 0.06119674
1159.90 0.06117652
1160.00 0.06115631
1160.10 0.06113609
1160.20 0.06111587
1160.30 0.06109566
1160.40 0.06107544
1160.50 0.06106533
1160.60 0.06104511
1160.70 0.0610249
1160.80 0.06100468
1160.90 0.06098446
1161.00 0.06096425
1161.10 0.06094403
1161.20 0.06092381
1161.30 0.06090359
1161.40 0.06089349
1161.50 0.06087327
1161.60 0.06085305
1161.70 0.06083284
1161.80 0.06081262
1161.90 0.0607924
1162.00 0.06077218
1162.10 0.06075197
1162.20 0.06073175
1162.30 0.06072164
1162.40 0.06070143
1162.50 0.06068121
1162.60 0.06066099
1162.70 0.06064077
1162.80 0.06062056
1162.90 0.06060034
1163.00 0.06058012
1163.10 0.06055991
1163.20 0.0605498
1163.30 0.06052958
1163.40 0.06050936
1163.50 0.06048915
1163.60 0.06046893
1163.70 0.06044871
1163.80 0.0604285
1163.90 0.06040828
1164.00 0.06039817
1164.10 0.06037795
1164.20 0.06035774
1164.30 0.06033752
1164.40 0.0603173
1164.50 0.06029709
1164.60 0.06027687
1164.70 0.06025665
1164.80 0.06024654
1164.90 0.06022633
1165.00 0.06020611
1165.10 0.06018589
1165.20 0.06016568
1165.30 0.06014546
1165.40 0.06012524
1165.50 0.06010502
1165.60 0.06009492
1165.70 0.0600747
1165.80 0.06005448
1165.90 0.06003427
1166.00 0.06001405
1166.10 0.05999383
1166.20 0.05997361
1166.30 0.0599534
1166.40 0.05994329
1166.50 0.05992307
1166.60 0.05990286
1166.70 0.05988264
1166.80 0.05986242
1166.90 0.0598422
1167.00 0.05982199
1167.10 0.05981188
1167.20 0.05979166
1167.30 0.05977145
1167.40 0.05975123
1167.50 0.05973101
1167.60 0.05971079
1167.70 0.05969058
1167.80 0.05968047
1167.90 0.05966025
1168.00 0.05964003
1168.10 0.05961982
1168.20 0.0595996
1168.30 0.05957938
1168.40 0.05955917
1168.50 0.05954906
1168.60 0.05952884
1168.70 0.05950862
1168.80 0.05948841
1168.90 0.05946819
1169.00 0.05944797
1169.10 0.05942776
1169.20 0.05941765
1169.30 0.05939743
1169.40 0.05937721
1169.50 0.059357
1169.60 0.05933678
1169.70 0.05931656
1169.80 0.05930646
1169.90 0.05928624
1170.00 0.05926602
1170.10 0.0592458
1170.20 0.05922559
1170.30 0.05920537
1170.40 0.05918515
1170.50 0.05917504
1170.60 0.05915483
1170.70 0.05913461
1170.80 0.05911439
1170.90 0.05909418
1171.00 0.05907396
1171.10 0.05906385
1171.20 0.05904363
1171.30 0.05902342
1171.40 0.0590032
1171.50 0.05898298
1171.60 0.05896277
1171.70 0.05895266
1171.80 0.05893244
1171.90 0.05891222
1172.00 0.05889201
1172.10 0.05887179
1172.20 0.05885157
1172.30 0.05884146
1172.40 0.05882125
1172.50 0.05880103
1172.60 0.05878081
1172.70 0.0587606
1172.80 0.05874038
1172.90 0.05873027
1173.00 0.05871005
1173.10 0.05868984
1173.20 0.05866962
1173.30 0.0586494
1173.40 0.05862919
1173.50 0.05861908
1173.60 0.05859886
1173.70 0.05857864
1173.80 0.05855843
1173.90 0.05853821
1174.00 0.0585281
1174.10 0.05850789
1174.20 0.05848767
1174.30 0.05846745
1174.40 0.05844723
1174.50 0.05842702
1174.60 0.05841691
1174.70 0.05839669
1174.80 0.05837647
1174.90 0.05835626
1175.00 0.05833604
1175.10 0.05832593
1175.20 0.05830572
1175.30 0.0582855
1175.40 0.05826528
1175.50 0.05824506
1175.60 0.05823496
1175.70 0.05821474
1175.80 0.05819452
1175.90 0.05817431
1176.00 0.05815409
1176.10 0.05813387
1176.20 0.05812376
1176.30 0.05810355
1176.40 0.05808333
1176.50 0.05806311
1176.60 0.05804289
1176.70 0.05803279
1176.80 0.05801257
1176.90 0.05799235
1177.00 0.05797214
1177.10 0.05795192
1177.20 0.05794181
1177.30 0.05792159
1177.40 0.05790138
1177.50 0.05788116
1177.60 0.05786094
1177.70 0.05785083
1177.80 0.05783062
1177.90 0.0578104
1178.00 0.05779018
1178.10 0.05776997
1178.20 0.05775986
1178.30 0.05773964
1178.40 0.05771942
1178.50 0.05769921
1178.60 0.05767899
1178.70 0.05766888
1178.80 0.05764866
1178.90 0.05762845
1179.00 0.05760823
1179.10 0.05758801
1179.20 0.0575779
1179.30 0.05755769
1179.40 0.05753747
1179.50 0.05751725
1179.60 0.05749704
1179.70 0.05748693
1179.80 0.05746671
1179.90 0.05744649
1180.00 0.05742628
1180.10 0.05741617
1180.20 0.05739595
1180.30 0.05737574
1180.40 0.05735552
1180.50 0.0573353
1180.60 0.05732519
1180.70 0.05730498
1180.80 0.05728476
1180.90 0.05726454
1181.00 0.05724433
1181.10 0.05723422
1181.20 0.057214
1181.30 0.05719378
1181.40 0.05717357
1181.50 0.05716346
1181.60 0.05714324
1181.70 0.05712302
1181.80 0.05710281
1181.90 0.05708259
1182.00 0.05707248
1182.10 0.05705226
1182.20 0.05703205
1182.30 0.05701183
1182.40 0.05700172
1182.50 0.0569815
1182.60 0.05696129
1182.70 0.05694107
1182.80 0.05692085
1182.90 0.05691075
1183.00 0.05689053
1183.10 0.05687031
1183.20 0.05685009
1183.30 0.05683999
1183.40 0.05681977
1183.50 0.05679955
1183.60 0.05677933
1183.70 0.05676923
1183.80 0.05674901
1183.90 0.05672879
1184.00 0.05670858
1184.10 0.05669847
1184.20 0.05667825
1184.30 0.05665803
1184.40 0.05663782
1184.50 0.05662771
1184.60 0.05660749
1184.70 0.05658727
1184.80 0.05656706
1184.90 0.05654684
1185.00 0.05653673
1185.10 0.05651651
1185.20 0.0564963
1185.30 0.05647608
1185.40 0.05646597
1185.50 0.05644576
1185.60 0.05642554
1185.70 0.05640532
1185.80 0.05639521
1185.90 0.056375
1186.00 0.05635478
1186.10 0.05633456
1186.20 0.05632445
1186.30 0.05630424
1186.40 0.05628402
1186.50 0.0562638
1186.60 0.05625369
1186.70 0.05623348
1186.80 0.05621326
1186.90 0.05619304
1187.00 0.05618293
1187.10 0.05616272
1187.20 0.0561425
1187.30 0.05612228
1187.40 0.05611218
1187.50 0.05609196
1187.60 0.05607174
1187.70 0.05606163
1187.80 0.05604142
1187.90 0.0560212
1188.00 0.05600098
1188.10 0.05599087
1188.20 0.05597066
1188.30 0.05595044
1188.40 0.05593022
1188.50 0.05592011
1188.60 0.0558999
1188.70 0.05587968
1188.80 0.05585946
1188.90 0.05584935
1189.00 0.05582914
1189.10 0.05580892
1189.20 0.0557887
1189.30 0.0557786
1189.40 0.05575838
1189.50 0.05573816
1189.60 0.05572805
1189.70 0.05570784
1189.80 0.05568762
1189.90 0.0556674
1190.00 0.05565729
1190.10 0.05563708
1190.20 0.05561686
1190.30 0.05559664
1190.40 0.05558653
1190.50 0.05556632
1190.60 0.0555461
1190.70 0.05553599
1190.80 0.05551577
1190.90 0.05549556
1191.00 0.05547534
1191.10 0.05546523
1191.20 0.05544502
1191.30 0.0554248
1191.40 0.05541469
1191.50 0.05539447
1191.60 0.05537426
1191.70 0.05535404
1191.80 0.05534393
1191.90 0.05532371
1192.00 0.0553035
1192.10 0.05528328
1192.20 0.05527317
1192.30 0.05525295
1192.40 0.05523274
1192.50 0.05522263
1192.60 0.05520241
1192.70 0.05518219
1192.80 0.05516198
1192.90 0.05515187
1193.00 0.05513165
1193.10 0.05511144
1193.20 0.05510133
1193.30 0.05508111
1193.40 0.05506089
1193.50 0.05504068
1193.60 0.05503057
1193.70 0.05501035
1193.80 0.05499013
1193.90 0.05498003
1194.00 0.05495981
1194.10 0.05493959
1194.20 0.05492948
1194.30 0.05490927
1194.40 0.05488905
1194.50 0.05486883
1194.60 0.05485872
1194.70 0.05483851
1194.80 0.05481829
1194.90 0.05480818
1195.00 0.05478796
1195.10 0.05476775
1195.20 0.05474753
1195.30 0.05473742
1195.40 0.0547172
1195.50 0.05469699
1195.60 0.05468688
1195.70 0.05466666
1195.80 0.05464645
1195.90 0.05463634
1196.00 0.05461612
1196.10 0.0545959
1196.20 0.05457569
1196.30 0.05456558
1196.40 0.05454536
1196.50 0.05452514
1196.60 0.05451504
1196.70 0.05449482
1196.80 0.0544746
1196.90 0.05446449
1197.00 0.05444428
1197.10 0.05442406
1197.20 0.05441395
1197.30 0.05439373
1197.40 0.05437352
1197.50 0.0543533
1197.60 0.05434319
1197.70 0.05432297
1197.80 0.05430276
1197.90 0.05429265
1198.00 0.05427243
1198.10 0.05425221
1198.20 0.05424211
1198.30 0.05422189
1198.40 0.05420167
1198.50 0.05419156
1198.60 0.05417135
1198.70 0.05415113
1198.80 0.05414102
1198.90 0.0541208
1199.00 0.05410059
1199.10 0.05409048
1199.20 0.05407026
1199.30 0.05405005
1199.40 0.05403994
1199.50 0.05401972
1199.60 0.0539995
1199.70 0.05398939
1199.80 0.05396918
1199.90 0.05394896
1200.00 0
