# Wavelength(nm)  Flambda(ergs/cm^s/s/nm)
300.00 0.5141712
300.10 0.5146753
300.20 0.5151794
300.30 0.5156835
300.40 0.5160868
300.50 0.5165908
300.60 0.5170949
300.70 0.517599
300.80 0.5181031
300.90 0.5186072
301.00 0.5191113
301.10 0.5196154
301.20 0.5201195
301.30 0.5206236
301.40 0.5210268
301.50 0.5215309
301.60 0.522035
301.70 0.5225391
301.80 0.5230432
301.90 0.5235473
302.00 0.5239506
302.10 0.5244546
302.20 0.5249587
302.30 0.5254628
302.40 0.5259669
302.50 0.526471
302.60 0.5269751
302.70 0.5274792
302.80 0.5279833
302.90 0.5283865
303.00 0.5288906
303.10 0.5293947
303.20 0.5298988
303.30 0.5304029
303.40 0.530907
303.50 0.5314111
303.60 0.5318144
303.70 0.5323184
303.80 0.5328225
303.90 0.5333266
304.00 0.5338307
304.10 0.5343348
304.20 0.5347381
304.30 0.5352422
304.40 0.5357462
304.50 0.5362503
304.60 0.5367544
304.70 0.5372585
304.80 0.5377626
304.90 0.5381659
305.00 0.53867
305.10 0.5391741
305.20 0.5396781
305.30 0.5401822
305.40 0.5406863
305.50 0.5410896
305.60 0.5415937
305.70 0.5420978
305.80 0.5426019
305.90 0.543106
306.00 0.5435092
306.10 0.5440133
306.20 0.5445174
306.30 0.5450215
306.40 0.5455256
306.50 0.5460297
306.60 0.5464329
306.70 0.546937
306.80 0.5474411
306.90 0.5479452
307.00 0.5484493
307.10 0.5489534
307.20 0.5493567
307.30 0.5498608
307.40 0.5503648
307.50 0.5508689
307.60 0.5512722
307.70 0.5517763
307.80 0.5522804
307.90 0.5527845
308.00 0.5532886
308.10 0.5536918
308.20 0.5541959
308.30 0.5547
308.40 0.5552041
308.50 0.5557082
308.60 0.5561115
308.70 0.5566156
308.80 0.5571196
308.90 0.5576237
309.00 0.5581278
309.10 0.5585311
309.20 0.5590352
309.30 0.5595393
309.40 0.5600434
309.50 0.5604466
309.60 0.5609507
309.70 0.5614548
309.80 0.5619589
309.90 0.5623622
310.00 0.5628663
310.10 0.5633703
310.20 0.5638744
310.30 0.5643785
310.40 0.5647818
310.50 0.5652859
310.60 0.56579
310.70 0.5662941
310.80 0.5666973
310.90 0.5672014
311.00 0.5677055
311.10 0.5682096
311.20 0.5687137
311.30 0.569117
311.40 0.5696211
311.50 0.5701251
311.60 0.5705284
311.70 0.5710325
311.80 0.5715366
311.90 0.5720407
312.00 0.572444
312.10 0.572948
312.20 0.5734521
312.30 0.5738554
312.40 0.5743595
312.50 0.5748636
312.60 0.5753677
312.70 0.5757709
312.80 0.576275
312.90 0.5767791
313.00 0.5772832
313.10 0.5776865
313.20 0.5781906
313.30 0.5786947
313.40 0.5790979
313.50 0.579602
313.60 0.5801061
313.70 0.5805094
313.80 0.5810135
313.90 0.5815176
314.00 0.5820217
314.10 0.5824249
314.20 0.582929
314.30 0.5834331
314.40 0.5838364
314.50 0.5843405
314.60 0.5848446
314.70 0.5853486
314.80 0.5857519
314.90 0.586256
315.00 0.5867601
315.10 0.5871634
315.20 0.5876675
315.30 0.5881715
315.40 0.5885748
315.50 0.5890789
315.60 0.589583
315.70 0.5899863
315.80 0.5904904
315.90 0.5909944
316.00 0.5913977
316.10 0.5919018
316.20 0.5924059
316.30 0.5928092
316.40 0.5933133
316.50 0.5938174
316.60 0.5942206
316.70 0.5947247
316.80 0.5952288
316.90 0.5956321
317.00 0.5961362
317.10 0.5966403
317.20 0.5970435
317.30 0.5975476
317.40 0.5980517
317.50 0.598455
317.60 0.5989591
317.70 0.5993623
317.80 0.5998664
317.90 0.6003705
318.00 0.6007738
318.10 0.6012779
318.20 0.601782
318.30 0.6021852
318.40 0.6026893
318.50 0.6030926
318.60 0.6035967
318.70 0.6041008
318.80 0.604504
318.90 0.6050081
319.00 0.6055122
319.10 0.6059155
319.20 0.6064196
319.30 0.6068229
319.40 0.6073269
319.50 0.607831
319.60 0.6082343
319.70 0.6087384
319.80 0.6091417
319.90 0.6096458
320.00 0.610049
320.10 0.6105531
320.20 0.6110572
320.30 0.6114605
320.40 0.6119646
320.50 0.6123678
320.60 0.6128719
320.70 0.613376
320.80 0.6137793
320.90 0.6142834
321.00 0.6146867
321.10 0.6151907
321.20 0.6156948
321.30 0.6160981
321.40 0.6166022
321.50 0.6170055
321.60 0.6175096
321.70 0.6179128
321.80 0.6184169
321.90 0.6188202
322.00 0.6193243
322.10 0.6198284
322.20 0.6202316
322.30 0.6207357
322.40 0.621139
322.50 0.6216431
322.60 0.6220464
322.70 0.6225504
322.80 0.6230545
322.90 0.6234578
323.00 0.6239619
323.10 0.6243652
323.20 0.6248693
323.30 0.6252725
323.40 0.6257766
323.50 0.6261799
323.60 0.626684
323.70 0.6270873
323.80 0.6275913
323.90 0.6279946
324.00 0.6284987
324.10 0.628902
324.20 0.6294061
324.30 0.6298093
324.40 0.6303134
324.50 0.6307167
324.60 0.6312208
324.70 0.6316241
324.80 0.6321281
324.90 0.6325314
325.00 0.6330355
325.10 0.6334388
325.20 0.6339429
325.30 0.6343461
325.40 0.6348502
325.50 0.6352535
325.60 0.6356568
325.70 0.6361609
325.80 0.6365641
325.90 0.6370682
326.00 0.6374715
326.10 0.6379756
326.20 0.6383789
326.30 0.6388829
326.40 0.6392862
326.50 0.6397903
326.60 0.6401936
326.70 0.6406977
326.80 0.6411009
326.90 0.641605
327.00 0.6420083
327.10 0.6425124
327.20 0.6429157
327.30 0.6433189
327.40 0.643823
327.50 0.6442263
327.60 0.6447304
327.70 0.6451337
327.80 0.6456377
327.90 0.646041
328.00 0.6464443
328.10 0.6469484
328.20 0.6473516
328.30 0.6478557
328.40 0.648259
328.50 0.6487631
328.60 0.6491664
328.70 0.6495696
328.80 0.6500737
328.90 0.650477
329.00 0.6509811
329.10 0.6513844
329.20 0.6518885
329.30 0.6522917
329.40 0.652695
329.50 0.6531991
329.60 0.6536024
329.70 0.6540056
329.80 0.6545097
329.90 0.654913
330.00 0.6553163
330.10 0.6558204
330.20 0.6562236
330.30 0.6567277
330.40 0.657131
330.50 0.6576351
330.60 0.6580383
330.70 0.6584416
330.80 0.6589457
330.90 0.659349
331.00 0.6597522
331.10 0.6602563
331.20 0.6606596
331.30 0.6610629
331.40 0.661567
331.50 0.6619702
331.60 0.6623735
331.70 0.6628776
331.80 0.6632809
331.90 0.6636841
332.00 0.6641882
332.10 0.6645915
332.20 0.6649948
332.30 0.6654989
332.40 0.6659021
332.50 0.6663054
332.60 0.6668095
332.70 0.6672128
332.80 0.667616
332.90 0.6681201
333.00 0.6685234
333.10 0.6689267
333.20 0.6694308
333.30 0.669834
333.40 0.6702373
333.50 0.6707414
333.60 0.6711447
333.70 0.6715479
333.80 0.6719512
333.90 0.6724553
334.00 0.6728586
334.10 0.6732618
334.20 0.6737659
334.30 0.6741692
334.40 0.6745725
334.50 0.6749757
334.60 0.6754798
334.70 0.6758831
334.80 0.6762864
334.90 0.6767905
335.00 0.6771937
335.10 0.677597
335.20 0.6780003
335.30 0.6785044
335.40 0.6789076
335.50 0.6793109
335.60 0.6797142
335.70 0.6802183
335.80 0.6806216
335.90 0.6810248
336.00 0.6814281
336.10 0.6819322
336.20 0.6823355
336.30 0.6827387
336.40 0.683142
336.50 0.6836461
336.60 0.6840494
336.70 0.6844526
336.80 0.6848559
336.90 0.6852592
337.00 0.6857633
337.10 0.6861665
337.20 0.6865698
337.30 0.6869731
337.40 0.6874772
337.50 0.6878804
337.60 0.6882837
337.70 0.688687
337.80 0.6890903
337.90 0.6894935
338.00 0.6899976
338.10 0.6904009
338.20 0.6908042
338.30 0.6912074
338.40 0.6916107
338.50 0.6921148
338.60 0.6925181
338.70 0.6929213
338.80 0.6933246
338.90 0.6937279
339.00 0.6941311
339.10 0.6946352
339.20 0.6950385
339.30 0.6954418
339.40 0.6958451
339.50 0.6962483
339.60 0.6966516
339.70 0.6970549
339.80 0.6974581
339.90 0.6978614
340.00 0.6983655
340.10 0.6987688
340.20 0.699172
340.30 0.6995753
340.40 0.6999786
340.50 0.7003819
340.60 0.7008859
340.70 0.7012892
340.80 0.7016925
340.90 0.7020958
341.00 0.702499
341.10 0.7029023
341.20 0.7033056
341.30 0.7037088
341.40 0.7042129
341.50 0.7046162
341.60 0.7050195
341.70 0.7054228
341.80 0.705826
341.90 0.7062293
342.00 0.7066326
342.10 0.7070358
342.20 0.7074391
342.30 0.7078424
342.40 0.7083465
342.50 0.7087497
342.60 0.709153
342.70 0.7095563
342.80 0.7099596
342.90 0.7103628
343.00 0.7107661
343.10 0.7111694
343.20 0.7115726
343.30 0.7119759
343.40 0.7123792
343.50 0.7127825
343.60 0.7131857
343.70 0.713589
343.80 0.7139923
343.90 0.7143955
344.00 0.7147988
344.10 0.7152021
344.20 0.7156054
344.30 0.7160086
344.40 0.7164119
344.50 0.7168152
344.60 0.7172184
344.70 0.7177225
344.80 0.7181258
344.90 0.7185291
345.00 0.7189323
345.10 0.7192348
345.20 0.7196381
345.30 0.7200413
345.40 0.7204446
345.50 0.7208479
345.60 0.7212512
345.70 0.7216544
345.80 0.7220577
345.90 0.722461
346.00 0.7228642
346.10 0.7232675
346.20 0.7236708
346.30 0.7240741
346.40 0.7244773
346.50 0.7248806
346.60 0.7252839
346.70 0.7256871
346.80 0.7260904
346.90 0.7264937
347.00 0.726897
347.10 0.7273002
347.20 0.7277035
347.30 0.7281068
347.40 0.72851
347.50 0.7289133
347.60 0.7293166
347.70 0.7297199
347.80 0.7301231
347.90 0.7305264
348.00 0.7309297
348.10 0.7313329
348.20 0.7316354
348.30 0.7320387
348.40 0.7324419
348.50 0.7328452
348.60 0.7332485
348.70 0.7336518
348.80 0.734055
348.90 0.7344583
349.00 0.7348616
349.10 0.7352648
349.20 0.7356681
349.30 0.7359706
349.40 0.7363738
349.50 0.7367771
349.60 0.7371804
349.70 0.7375837
349.80 0.7379869
349.90 0.7382894
350.00 0.7386927
350.10 0.7390959
350.20 0.7394992
350.30 0.7399025
350.40 0.7403057
350.50 0.740709
350.60 0.7411123
350.70 0.7414147
350.80 0.741818
350.90 0.7422213
351.00 0.7426246
351.10 0.7430278
351.20 0.7434311
351.30 0.7438344
351.40 0.7441368
351.50 0.7445401
351.60 0.7449434
351.70 0.7453466
351.80 0.7457499
351.90 0.7460524
352.00 0.7464556
352.10 0.7468589
352.20 0.7472622
352.30 0.7476654
352.40 0.7480687
352.50 0.7483712
352.60 0.7487744
352.70 0.7491777
352.80 0.749581
352.90 0.7499843
353.00 0.7503875
353.10 0.75069
353.20 0.7510933
353.30 0.7514965
353.40 0.7518998
353.50 0.7522023
353.60 0.7526055
353.70 0.7530088
353.80 0.7534121
353.90 0.7538153
354.00 0.7541178
354.10 0.7545211
354.20 0.7549243
354.30 0.7553276
354.40 0.7556301
354.50 0.7560333
354.60 0.7564366
354.70 0.7568399
354.80 0.7571423
354.90 0.7575456
355.00 0.7579489
355.10 0.7583521
355.20 0.7586546
355.30 0.7590579
355.40 0.7594611
355.50 0.7597636
355.60 0.7601669
355.70 0.7605701
355.80 0.7608726
355.90 0.7612759
356.00 0.7616791
356.10 0.7619816
356.20 0.7623849
356.30 0.7627881
356.40 0.7631914
356.50 0.7634939
356.60 0.7638971
356.70 0.7643004
356.80 0.7646029
356.90 0.7650061
357.00 0.7654094
357.10 0.7657118
357.20 0.7661151
357.30 0.7665184
357.40 0.7669217
357.50 0.7672241
357.60 0.7676274
357.70 0.7679298
357.80 0.7683331
357.90 0.7687364
358.00 0.7690388
358.10 0.7694421
358.20 0.7698454
358.30 0.7701478
358.40 0.7705511
358.50 0.7709544
358.60 0.7712568
358.70 0.7716601
358.80 0.7720634
358.90 0.7723658
359.00 0.7727691
359.10 0.7731724
359.20 0.7734748
359.30 0.7738781
359.40 0.7741805
359.50 0.7745838
359.60 0.7749871
359.70 0.7752895
359.80 0.7756928
359.90 0.7759953
360.00 0.7763985
360.10 0.776701
360.20 0.7771043
360.30 0.7775075
360.40 0.77781
360.50 0.7782133
360.60 0.7785157
360.70 0.778919
360.80 0.7793223
360.90 0.7796247
361.00 0.780028
361.10 0.7803304
361.20 0.7807337
361.30 0.7810362
361.40 0.7814394
361.50 0.7818427
361.60 0.7821452
361.70 0.7825484
361.80 0.7828509
361.90 0.7832542
362.00 0.7835566
362.10 0.7839599
362.20 0.7842623
362.30 0.7846656
362.40 0.7849681
362.50 0.7853713
362.60 0.7856738
362.70 0.7860771
362.80 0.7863795
362.90 0.7867828
363.00 0.7870852
363.10 0.7874885
363.20 0.787791
363.30 0.7881942
363.40 0.7884967
363.50 0.7889
363.60 0.7892024
363.70 0.7896057
363.80 0.7899081
363.90 0.7903114
364.00 0.7906139
364.10 0.7910171
364.20 0.7913196
364.30 0.7917229
364.40 0.7920253
364.50 0.7923278
364.60 0.792731
364.70 0.7930335
364.80 0.7934368
364.90 0.7937392
365.00 0.7941425
365.10 0.7944449
365.20 0.7948482
365.30 0.7951507
365.40 0.7954531
365.50 0.7958564
365.60 0.7961588
365.70 0.7965621
365.80 0.7968646
365.90 0.7972678
366.00 0.7975703
366.10 0.7978728
366.20 0.798276
366.30 0.7985785
366.40 0.7989817
366.50 0.7992842
366.60 0.7995867
366.70 0.7999899
366.80 0.8002924
366.90 0.8006957
367.00 0.8009981
367.10 0.8013006
367.20 0.8017038
367.30 0.8020063
367.40 0.8023087
367.50 0.802712
367.60 0.8030145
367.70 0.8034177
367.80 0.8037202
367.90 0.8040226
368.00 0.8044259
368.10 0.8047284
368.20 0.8050308
368.30 0.8054341
368.40 0.8057365
368.50 0.806039
368.60 0.8064423
368.70 0.8067447
368.80 0.8070472
368.90 0.8074505
369.00 0.8077529
369.10 0.8080554
369.20 0.8084586
369.30 0.8087611
369.40 0.8090635
369.50 0.8094668
369.60 0.8097693
369.70 0.8100717
369.80 0.8103742
369.90 0.8107774
370.00 0.8110799
370.10 0.8113823
370.20 0.8117856
370.30 0.8120881
370.40 0.8123905
370.50 0.8127938
370.60 0.8130963
370.70 0.8133987
370.80 0.8137012
370.90 0.8141044
371.00 0.8144069
371.10 0.8147093
371.20 0.8151126
371.30 0.8154151
371.40 0.8157175
371.50 0.81602
371.60 0.8164232
371.70 0.8167257
371.80 0.8170282
371.90 0.8173306
372.00 0.8177339
372.10 0.8180363
372.20 0.8183388
372.30 0.8186412
372.40 0.8190445
372.50 0.819347
372.60 0.8196494
372.70 0.8199519
372.80 0.8203551
372.90 0.8206576
373.00 0.82096
373.10 0.8212625
373.20 0.821565
373.30 0.8219682
373.40 0.8222707
373.50 0.8225731
373.60 0.8228756
373.70 0.823178
373.80 0.8235813
373.90 0.8238838
374.00 0.8241862
374.10 0.8244887
374.20 0.8247911
374.30 0.8251944
374.40 0.8254969
374.50 0.8257993
374.60 0.8261018
374.70 0.8264042
374.80 0.8267067
374.90 0.8271099
375.00 0.8274124
375.10 0.8277148
375.20 0.8280173
375.30 0.8283198
375.40 0.8286222
375.50 0.8289247
375.60 0.8293279
375.70 0.8296304
375.80 0.8299328
375.90 0.8302353
376.00 0.8305377
376.10 0.8308402
376.20 0.8311427
376.30 0.8314451
376.40 0.8317476
376.50 0.83205
376.60 0.8324533
376.70 0.8327557
376.80 0.8330582
376.90 0.8333606
377.00 0.8336631
377.10 0.8339656
377.20 0.834268
377.30 0.8345705
377.40 0.8348729
377.50 0.8351754
377.60 0.8354778
377.70 0.8357803
377.80 0.8361835
377.90 0.836486
378.00 0.8367885
378.10 0.8370909
378.20 0.8373934
378.30 0.8376958
378.40 0.8379983
378.50 0.8383007
378.60 0.8386032
378.70 0.8389056
378.80 0.8392081
378.90 0.8395105
379.00 0.839813
379.10 0.8401154
379.20 0.8404179
379.30 0.8407204
379.40 0.8410228
379.50 0.8413253
379.60 0.8416277
379.70 0.8419302
379.80 0.8422326
379.90 0.8425351
380.00 0.8428375
380.10 0.84314
380.20 0.8434424
380.30 0.8437449
380.40 0.8440473
380.50 0.8443498
380.60 0.8446523
380.70 0.8449547
380.80 0.8452572
380.90 0.8455596
381.00 0.8458621
381.10 0.8461645
381.20 0.846467
381.30 0.8467694
381.40 0.8470719
381.50 0.8473743
381.60 0.8476768
381.70 0.8479792
381.80 0.8482817
381.90 0.8485841
382.00 0.8488866
382.10 0.8491891
382.20 0.8494915
382.30 0.8496931
382.40 0.8499956
382.50 0.8502981
382.60 0.8506005
382.70 0.850903
382.80 0.8511046
382.90 0.8514071
383.00 0.8517095
383.10 0.852012
383.20 0.8522136
383.30 0.852516
383.40 0.8527177
383.50 0.8528185
383.60 0.853121
383.70 0.853625
383.80 0.8540283
383.90 0.8543308
384.00 0.854734
384.10 0.8550365
384.20 0.8553389
384.30 0.8556414
384.40 0.8559439
384.50 0.8562463
384.60 0.8565488
384.70 0.8568512
384.80 0.8570529
384.90 0.8574561
385.00 0.8576578
385.10 0.8579602
385.20 0.8582627
385.30 0.8585651
385.40 0.8588676
385.50 0.85917
385.60 0.8594725
385.70 0.8597749
385.80 0.8600774
385.90 0.860279
386.00 0.8605815
386.10 0.8608839
386.20 0.8611864
386.30 0.8614888
386.40 0.8617913
386.50 0.8619929
386.60 0.8622954
386.70 0.8625978
386.80 0.8629003
386.90 0.8632027
387.00 0.8634044
387.10 0.8637068
387.20 0.8640093
387.30 0.8643117
387.40 0.8645134
387.50 0.8648158
387.60 0.8651183
387.70 0.8653199
387.80 0.8656224
387.90 0.865824
388.00 0.8660256
388.10 0.8663281
388.20 0.8665297
388.30 0.8667314
388.40 0.8668322
388.50 0.866933
388.60 0.8670338
388.70 0.866933
388.80 0.8666306
388.90 0.8661265
389.00 0.8671346
389.10 0.868042
389.20 0.8686469
389.30 0.869151
389.40 0.8696551
389.50 0.8700584
389.60 0.8704616
389.70 0.8707641
389.80 0.8711674
389.90 0.8714698
390.00 0.8717723
390.10 0.8720747
390.20 0.8723772
390.30 0.8726796
390.40 0.8729821
390.50 0.8731837
390.60 0.8734862
390.70 0.8737886
390.80 0.8740911
390.90 0.8743935
391.00 0.8745952
391.10 0.8748976
391.20 0.8752001
391.30 0.8754017
391.40 0.8757042
391.50 0.8760066
391.60 0.8763091
391.70 0.8765107
391.80 0.8768132
391.90 0.8771156
392.00 0.8773172
392.10 0.8776197
392.20 0.8779222
392.30 0.8782246
392.40 0.8784262
392.50 0.8787287
392.60 0.8789303
392.70 0.8792328
392.80 0.8795352
392.90 0.8797369
393.00 0.8800393
393.10 0.8803418
393.20 0.8805434
393.30 0.8808459
393.40 0.8811483
393.50 0.88135
393.60 0.8816524
393.70 0.8818541
393.80 0.8821565
393.90 0.882459
394.00 0.8826606
394.10 0.882963
394.20 0.8831647
394.30 0.8834671
394.40 0.8836688
394.50 0.8839712
394.60 0.8841729
394.70 0.8844753
394.80 0.884677
394.90 0.8849794
395.00 0.885181
395.10 0.8853827
395.20 0.8856851
395.30 0.8858868
395.40 0.8860884
395.50 0.8863909
395.60 0.8865925
395.70 0.8867941
395.80 0.8869958
395.90 0.8870966
396.00 0.8872982
396.10 0.887399
396.20 0.8874999
396.30 0.8874999
396.40 0.8874999
396.50 0.8872982
396.60 0.8868949
396.70 0.8864917
396.80 0.8854835
396.90 0.884072
397.00 0.8823581
397.10 0.8844753
397.20 0.88629
397.30 0.8878023
397.40 0.8889113
397.50 0.8897178
397.60 0.8904236
397.70 0.8910285
397.80 0.8915326
397.90 0.8920367
398.00 0.8923391
398.10 0.8927424
398.20 0.8930448
398.30 0.8933473
398.40 0.8936497
398.50 0.8939522
398.60 0.8942547
398.70 0.8945571
398.80 0.8948596
398.90 0.8950612
399.00 0.8953636
399.10 0.8956661
399.20 0.8958677
399.30 0.8961702
399.40 0.8963718
399.50 0.8966743
399.60 0.8969767
399.70 0.8971784
399.80 0.8974808
399.90 0.8976825
400.00 0.8978841
400.10 0.8981865
400.20 0.8983882
400.30 0.8986906
400.40 0.8988923
400.50 0.8991947
400.60 0.8993964
400.70 0.8996988
400.80 0.8999005
400.90 0.9002029
401.00 0.9004045
401.10 0.900707
401.20 0.9009086
401.30 0.9011103
401.40 0.9014127
401.50 0.9016144
401.60 0.9019168
401.70 0.9021184
401.80 0.9023201
401.90 0.9026225
402.00 0.9028242
402.10 0.9030258
402.20 0.9033283
402.30 0.9035299
402.40 0.9037315
402.50 0.904034
402.60 0.9042356
402.70 0.9044373
402.80 0.9047397
402.90 0.9049413
403.00 0.905143
403.10 0.9054454
403.20 0.9056471
403.30 0.9058487
403.40 0.9061512
403.50 0.9063528
403.60 0.9065544
403.70 0.9068569
403.80 0.9070585
403.90 0.9072602
404.00 0.9075626
404.10 0.9077642
404.20 0.9079659
404.30 0.9081675
404.40 0.90847
404.50 0.9086716
404.60 0.9088732
404.70 0.9091757
404.80 0.9093773
404.90 0.909579
405.00 0.9097806
405.10 0.9099822
405.20 0.9102847
405.30 0.9104863
405.40 0.910688
405.50 0.9108896
405.60 0.9111921
405.70 0.9113937
405.80 0.9115953
405.90 0.911797
406.00 0.9120994
406.10 0.9123011
406.20 0.9125027
406.30 0.9127043
406.40 0.912906
406.50 0.9132084
406.60 0.9134101
406.70 0.9136117
406.80 0.9138133
406.90 0.914015
407.00 0.9142166
407.10 0.9144182
407.20 0.9146199
407.30 0.9148215
407.40 0.915124
407.50 0.9153256
407.60 0.9154264
407.70 0.915628
407.80 0.9158297
407.90 0.9160313
408.00 0.916233
408.10 0.9164346
408.20 0.9166362
408.30 0.9168379
408.40 0.9169387
408.50 0.9171403
408.60 0.9172411
408.70 0.9174428
408.80 0.9175436
408.90 0.9175436
409.00 0.9176444
409.10 0.9176444
409.20 0.9176444
409.30 0.9175436
409.40 0.9172411
409.50 0.9168379
409.60 0.916233
409.70 0.915124
409.80 0.9135109
409.90 0.9112929
410.00 0.9074618
410.10 0.9037315
410.20 0.9003037
410.30 0.9059495
410.40 0.9105871
410.50 0.9141158
410.60 0.916233
410.70 0.9179469
410.80 0.9192575
410.90 0.9201648
411.00 0.9208706
411.10 0.9215763
411.20 0.9220804
411.30 0.9224837
411.40 0.9228869
411.50 0.9231894
411.60 0.9235927
411.70 0.9238951
411.80 0.9240967
411.90 0.9243992
412.00 0.9247017
412.10 0.9249033
412.20 0.9252057
412.30 0.9254074
412.40 0.9257098
412.50 0.9259115
412.60 0.9261131
412.70 0.9264156
412.80 0.9266172
412.90 0.9268188
413.00 0.9270205
413.10 0.9272221
413.20 0.9274237
413.30 0.9277262
413.40 0.9279278
413.50 0.9281295
413.60 0.9283311
413.70 0.9285327
413.80 0.9287344
413.90 0.928936
414.00 0.9291376
414.10 0.9293393
414.20 0.9295409
414.30 0.9297425
414.40 0.9299442
414.50 0.9301458
414.60 0.9303475
414.70 0.9305491
414.80 0.9308515
414.90 0.9310532
415.00 0.9312548
415.10 0.9314565
415.20 0.9315573
415.30 0.9317589
415.40 0.9319605
415.50 0.9321622
415.60 0.9323638
415.70 0.9325654
415.80 0.9328679
415.90 0.9329687
416.00 0.9331704
416.10 0.933372
416.20 0.9335736
416.30 0.9337753
416.40 0.9339769
416.50 0.9341785
416.60 0.9343802
416.70 0.9345818
416.80 0.9347834
416.90 0.9349851
417.00 0.9351867
417.10 0.9353883
417.20 0.93559
417.30 0.9357916
417.40 0.9358924
417.50 0.9360941
417.60 0.9362957
417.70 0.9364973
417.80 0.936699
417.90 0.9369006
418.00 0.9371023
418.10 0.9373039
418.20 0.9374047
418.30 0.9376063
418.40 0.937808
418.50 0.9380096
418.60 0.9382113
418.70 0.9384129
418.80 0.9386145
418.90 0.9388162
419.00 0.9390178
419.10 0.9391186
419.20 0.9393202
419.30 0.9395219
419.40 0.9397235
419.50 0.9399252
419.60 0.9401268
419.70 0.9402276
419.80 0.9404292
419.90 0.9406309
420.00 0.9408325
420.10 0.9410342
420.20 0.9412358
420.30 0.9413366
420.40 0.9415382
420.50 0.9417399
420.60 0.9419415
420.70 0.9421431
420.80 0.9423448
420.90 0.9424456
421.00 0.9426472
421.10 0.9428489
421.20 0.9430505
421.30 0.9432521
421.40 0.943353
421.50 0.9435546
421.60 0.9437562
421.70 0.9439579
421.80 0.9441595
421.90 0.9442603
422.00 0.944462
422.10 0.9446636
422.20 0.9448652
422.30 0.944966
422.40 0.9451677
422.50 0.9453693
422.60 0.945571
422.70 0.9456718
422.80 0.9458734
422.90 0.946075
423.00 0.9461759
423.10 0.9463775
423.20 0.9465791
423.30 0.9467808
423.40 0.9468816
423.50 0.9470832
423.60 0.9472849
423.70 0.9474865
423.80 0.9475873
423.90 0.9477889
424.00 0.9479906
424.10 0.9481922
424.20 0.948293
424.30 0.9484947
424.40 0.9486963
424.50 0.9488979
424.60 0.9489988
424.70 0.9492004
424.80 0.949402
424.90 0.9495029
425.00 0.9497045
425.10 0.9499061
425.20 0.9500069
425.30 0.9502086
425.40 0.9504102
425.50 0.950511
425.60 0.9507127
425.70 0.9509143
425.80 0.9510151
425.90 0.9512168
426.00 0.9514184
426.10 0.9515192
426.20 0.9517208
426.30 0.9518217
426.40 0.9520233
426.50 0.9522249
426.60 0.9523258
426.70 0.9525274
426.80 0.9526282
426.90 0.9528298
427.00 0.9530315
427.10 0.9531323
427.20 0.9533339
427.30 0.9535356
427.40 0.9536364
427.50 0.953838
427.60 0.9539388
427.70 0.9541405
427.80 0.9543421
427.90 0.9544429
428.00 0.9546446
428.10 0.9547454
428.20 0.954947
428.30 0.9550478
428.40 0.9552495
428.50 0.9554511
428.60 0.9555519
428.70 0.9557536
428.80 0.9558544
428.90 0.956056
429.00 0.9561568
429.10 0.9563585
429.20 0.9564593
429.30 0.9566609
429.40 0.9567617
429.50 0.9569634
429.60 0.9570642
429.70 0.9572658
429.80 0.9573666
429.90 0.9575683
430.00 0.9576691
430.10 0.9578707
430.20 0.9579716
430.30 0.9580724
430.40 0.958274
430.50 0.9583748
430.60 0.9585765
430.70 0.9586773
430.80 0.9587781
430.90 0.9589797
431.00 0.9590806
431.10 0.9591814
431.20 0.959383
431.30 0.9594838
431.40 0.9595846
431.50 0.9596855
431.60 0.9597863
431.70 0.9598871
431.80 0.9599879
431.90 0.9600887
432.00 0.9601895
432.10 0.9602904
432.20 0.9602904
432.30 0.9602904
432.40 0.9603912
432.50 0.9602904
432.60 0.9602904
432.70 0.9601895
432.80 0.9600887
432.90 0.9598871
433.00 0.9595846
433.10 0.9590806
433.20 0.9584756
433.30 0.9576691
433.40 0.9561568
433.50 0.9541405
433.60 0.9515192
433.70 0.9463775
433.80 0.9388162
433.90 0.9287344
434.00 0.9126035
434.10 0.9132084
434.20 0.9303475
434.30 0.9403284
434.40 0.9479906
434.50 0.9531323
434.60 0.9559552
434.70 0.958274
434.80 0.9598871
434.90 0.9609961
435.00 0.9619035
435.10 0.96271
435.20 0.9633149
435.30 0.963819
435.40 0.9642223
435.50 0.9645247
435.60 0.964928
435.70 0.9651296
435.80 0.9654321
435.90 0.9657345
436.00 0.9659362
436.10 0.9661378
436.20 0.9663394
436.30 0.9665411
436.40 0.9667427
436.50 0.9669443
436.60 0.967146
436.70 0.9673476
436.80 0.9674484
436.90 0.9676501
437.00 0.9678517
437.10 0.9679525
437.20 0.9681542
437.30 0.968255
437.40 0.9684566
437.50 0.9685574
437.60 0.9687591
437.70 0.9688599
437.80 0.9690615
437.90 0.9691623
438.00 0.969364
438.10 0.9694648
438.20 0.9696664
438.30 0.9697672
438.40 0.9699689
438.50 0.9700697
438.60 0.9701705
438.70 0.9703722
438.80 0.970473
438.90 0.9705738
439.00 0.9707754
439.10 0.9708762
439.20 0.9709771
439.30 0.9711787
439.40 0.9712795
439.50 0.9713803
439.60 0.971582
439.70 0.9716828
439.80 0.9718844
439.90 0.9719852
440.00 0.9720861
440.10 0.9721869
440.20 0.9723885
440.30 0.9724893
440.40 0.9725901
440.50 0.9727918
440.60 0.9728926
440.70 0.9729934
440.80 0.9730942
440.90 0.9732959
441.00 0.9733967
441.10 0.9734975
441.20 0.9736991
441.30 0.9738
441.40 0.9739008
441.50 0.9741024
441.60 0.9742032
441.70 0.9743041
441.80 0.9744049
441.90 0.9745057
442.00 0.9747073
442.10 0.9748081
442.20 0.974909
442.30 0.9750098
442.40 0.9752114
442.50 0.9753122
442.60 0.9754131
442.70 0.9756147
442.80 0.9757155
442.90 0.9758163
443.00 0.9759171
443.10 0.976018
443.20 0.9762196
443.30 0.9763204
443.40 0.9764212
443.50 0.976522
443.60 0.9766229
443.70 0.9767237
443.80 0.9769253
443.90 0.9770261
444.00 0.977127
444.10 0.9772278
444.20 0.9773286
444.30 0.9775302
444.40 0.977631
444.50 0.9777319
444.60 0.9778327
444.70 0.9779335
444.80 0.9780343
444.90 0.978236
445.00 0.9783368
445.10 0.9784376
445.20 0.9785384
445.30 0.9786392
445.40 0.97874
445.50 0.9789417
445.60 0.9790425
445.70 0.9791433
445.80 0.9792441
445.90 0.9793449
446.00 0.9794458
446.10 0.9795466
446.20 0.9797482
446.30 0.979849
446.40 0.9799499
446.50 0.9800507
446.60 0.9801515
446.70 0.9802523
446.80 0.9803531
446.90 0.9804539
447.00 0.9805548
447.10 0.9807564
447.20 0.9808572
447.30 0.980958
447.40 0.9810589
447.50 0.9811597
447.60 0.9812605
447.70 0.9813613
447.80 0.9814621
447.90 0.9815629
448.00 0.9817646
448.10 0.9818654
448.20 0.9819662
448.30 0.982067
448.40 0.9821678
448.50 0.9822687
448.60 0.9823695
448.70 0.9824703
448.80 0.9825711
448.90 0.9826719
449.00 0.9827728
449.10 0.9828736
449.20 0.9829744
449.30 0.9830752
449.40 0.9832768
449.50 0.9832768
449.60 0.9834785
449.70 0.9835793
449.80 0.9836801
449.90 0.9837809
450.00 0.9838818
450.10 0.9839826
450.20 0.9840834
450.30 0.9841842
450.40 0.984285
450.50 0.9843858
450.60 0.9844867
450.70 0.9845875
450.80 0.9846883
450.90 0.9847891
451.00 0.9848899
451.10 0.9849907
451.20 0.9850916
451.30 0.9851924
451.40 0.9852932
451.50 0.985394
451.60 0.9854948
451.70 0.9855957
451.80 0.9856965
451.90 0.9857973
452.00 0.9858981
452.10 0.9859989
452.20 0.9860997
452.30 0.9862006
452.40 0.9863014
452.50 0.9864022
452.60 0.986503
452.70 0.9866038
452.80 0.9867047
452.90 0.9868055
453.00 0.9869063
453.10 0.9870071
453.20 0.9871079
453.30 0.9872087
453.40 0.9873096
453.50 0.9874104
453.60 0.9875112
453.70 0.987612
453.80 0.987612
453.90 0.9877128
454.00 0.9878137
454.10 0.9879145
454.20 0.9880153
454.30 0.9881161
454.40 0.9882169
454.50 0.9883177
454.60 0.9884186
454.70 0.9885194
454.80 0.9886202
454.90 0.988721
455.00 0.9888218
455.10 0.9889226
455.20 0.9889226
455.30 0.9890235
455.40 0.9891243
455.50 0.9892251
455.60 0.9893259
455.70 0.9894267
455.80 0.9895276
455.90 0.9896284
456.00 0.9897292
456.10 0.9897292
456.20 0.98983
456.30 0.9899308
456.40 0.9900316
456.50 0.9901325
456.60 0.9902333
456.70 0.9903341
456.80 0.9904349
456.90 0.9904349
457.00 0.9905357
457.10 0.9906366
457.20 0.9907374
457.30 0.9908382
457.40 0.990939
457.50 0.9910398
457.60 0.9911406
457.70 0.9911406
457.80 0.9912415
457.90 0.9913423
458.00 0.9914431
458.10 0.9915439
458.20 0.9916447
458.30 0.9916447
458.40 0.9917455
458.50 0.9918464
458.60 0.9919472
458.70 0.992048
458.80 0.9921488
458.90 0.9921488
459.00 0.9922496
459.10 0.9923505
459.20 0.9924513
459.30 0.9925521
459.40 0.9925521
459.50 0.9926529
459.60 0.9927537
459.70 0.9928545
459.80 0.9929554
459.90 0.9929554
460.00 0.9930562
460.10 0.993157
460.20 0.9932578
460.30 0.9933586
460.40 0.9933586
460.50 0.9934595
460.60 0.9935603
460.70 0.9936611
460.80 0.9937619
460.90 0.9937619
461.00 0.9938627
461.10 0.9939635
461.20 0.9940644
461.30 0.9941652
461.40 0.9941652
461.50 0.994266
461.60 0.9943668
461.70 0.9944676
461.80 0.9944676
461.90 0.9945684
462.00 0.9946693
462.10 0.9947701
462.20 0.9947701
462.30 0.9948709
462.40 0.9949717
462.50 0.9949717
462.60 0.9950725
462.70 0.9951734
462.80 0.9952742
462.90 0.9952742
463.00 0.995375
463.10 0.9954758
463.20 0.9955766
463.30 0.9955766
463.40 0.9956774
463.50 0.9957783
463.60 0.9958791
463.70 0.9958791
463.80 0.9959799
463.90 0.9960807
464.00 0.9960807
464.10 0.9961815
464.20 0.9962824
464.30 0.9962824
464.40 0.9963832
464.50 0.996484
464.60 0.996484
464.70 0.9965848
464.80 0.9966856
464.90 0.9967864
465.00 0.9967864
465.10 0.9968873
465.20 0.9969881
465.30 0.9969881
465.40 0.9970889
465.50 0.9971897
465.60 0.9971897
465.70 0.9972905
465.80 0.9973913
465.90 0.9973913
466.00 0.9974922
466.10 0.9974922
466.20 0.997593
466.30 0.9976938
466.40 0.9976938
466.50 0.9977946
466.60 0.9978954
466.70 0.9978954
466.80 0.9979963
466.90 0.9980971
467.00 0.9980971
467.10 0.9981979
467.20 0.9982987
467.30 0.9982987
467.40 0.9983995
467.50 0.9985003
467.60 0.9985003
467.70 0.9986012
467.80 0.9986012
467.90 0.998702
468.00 0.9988028
468.10 0.9988028
468.20 0.9989036
468.30 0.9990044
468.40 0.9990044
468.50 0.9991053
468.60 0.9991053
468.70 0.9992061
468.80 0.9992061
468.90 0.9993069
469.00 0.9994077
469.10 0.9994077
469.20 0.9995085
469.30 0.9995085
469.40 0.9996093
469.50 0.9997102
469.60 0.9997102
469.70 0.999811
469.80 0.999811
469.90 0.9999118
470.00 1.000013
470.10 1.000013
470.20 1.000113
470.30 1.000113
470.40 1.000214
470.50 1.000214
470.60 1.000315
470.70 1.000315
470.80 1.000416
470.90 1.000517
471.00 1.000517
471.10 1.000618
471.20 1.000618
471.30 1.000718
471.40 1.000718
471.50 1.000819
471.60 1.000819
471.70 1.00092
471.80 1.00092
471.90 1.001021
472.00 1.001021
472.10 1.001122
472.20 1.001122
472.30 1.001222
472.40 1.001222
472.50 1.001323
472.60 1.001323
472.70 1.001424
472.80 1.001424
472.90 1.001525
473.00 1.001626
473.10 1.001626
473.20 1.001727
473.30 1.001727
473.40 1.001827
473.50 1.001827
473.60 1.001928
473.70 1.001928
473.80 1.002029
473.90 1.002029
474.00 1.002029
474.10 1.00213
474.20 1.00213
474.30 1.002231
474.40 1.002231
474.50 1.002331
474.60 1.002331
474.70 1.002432
474.80 1.002432
474.90 1.002533
475.00 1.002533
475.10 1.002634
475.20 1.002634
475.30 1.002634
475.40 1.002735
475.50 1.002735
475.60 1.002836
475.70 1.002836
475.80 1.002936
475.90 1.002936
476.00 1.003037
476.10 1.003037
476.20 1.003037
476.30 1.003138
476.40 1.003138
476.50 1.003239
476.60 1.003239
476.70 1.003239
476.80 1.00334
476.90 1.00334
477.00 1.00344
477.10 1.00344
477.20 1.003541
477.30 1.003541
477.40 1.003541
477.50 1.003642
477.60 1.003642
477.70 1.003642
477.80 1.003743
477.90 1.003743
478.00 1.003844
478.10 1.003844
478.20 1.003844
478.30 1.003945
478.40 1.003945
478.50 1.004045
478.60 1.004045
478.70 1.004045
478.80 1.004146
478.90 1.004146
479.00 1.004146
479.10 1.004247
479.20 1.004247
479.30 1.004247
479.40 1.004348
479.50 1.004348
479.60 1.004348
479.70 1.004348
479.80 1.004449
479.90 1.004449
480.00 1.004449
480.10 1.004549
480.20 1.004549
480.30 1.004549
480.40 1.004549
480.50 1.00465
480.60 1.00465
480.70 1.00465
480.80 1.00465
480.90 1.004751
481.00 1.004751
481.10 1.004751
481.20 1.004751
481.30 1.004852
481.40 1.004852
481.50 1.004852
481.60 1.004852
481.70 1.004852
481.80 1.004852
481.90 1.004852
482.00 1.004953
482.10 1.004953
482.20 1.004953
482.30 1.004953
482.40 1.004852
482.50 1.004852
482.60 1.004852
482.70 1.004852
482.80 1.004852
482.90 1.004852
483.00 1.004852
483.10 1.004852
483.20 1.004751
483.30 1.00465
483.40 1.00465
483.50 1.004549
483.60 1.004449
483.70 1.004348
483.80 1.004247
483.90 1.004146
484.00 1.004146
484.10 1.004045
484.20 1.003844
484.30 1.003541
484.40 1.003239
484.50 1.002936
484.60 1.002735
484.70 1.002029
484.80 1.001323
484.90 1.000517
485.00 0.9997102
485.10 0.9990044
485.20 0.9974922
485.30 0.9956774
485.40 0.9928545
485.50 0.9894267
485.60 0.9835793
485.70 0.976522
485.80 0.9628108
485.90 0.9459742
486.00 0.9192575
486.10 0.8756033
486.20 0.8926416
486.30 0.9307507
486.40 0.95162
486.50 0.9688599
486.60 0.9792441
486.70 0.9864022
486.80 0.9910398
486.90 0.9944676
487.00 0.9967864
487.10 0.998702
487.20 0.999811
487.30 1.000618
487.40 1.001525
487.50 1.002331
487.60 1.003138
487.70 1.003642
487.80 1.003945
487.90 1.004247
488.00 1.004549
488.10 1.004953
488.20 1.005154
488.30 1.005255
488.40 1.005356
488.50 1.005558
488.60 1.005658
488.70 1.005759
488.80 1.005961
488.90 1.006062
489.00 1.006163
489.10 1.006263
489.20 1.006364
489.30 1.006465
489.40 1.006465
489.50 1.006566
489.60 1.006667
489.70 1.006667
489.80 1.006767
489.90 1.006767
490.00 1.006868
490.10 1.006969
490.20 1.006969
490.30 1.006969
490.40 1.00707
490.50 1.00707
490.60 1.00707
490.70 1.007171
490.80 1.007171
490.90 1.007171
491.00 1.007272
491.10 1.007272
491.20 1.007272
491.30 1.007272
491.40 1.007372
491.50 1.007372
491.60 1.007372
491.70 1.007372
491.80 1.007473
491.90 1.007473
492.00 1.007473
492.10 1.007473
492.20 1.007574
492.30 1.007574
492.40 1.007574
492.50 1.007574
492.60 1.007574
492.70 1.007675
492.80 1.007675
492.90 1.007675
493.00 1.007675
493.10 1.007675
493.20 1.007675
493.30 1.007776
493.40 1.007776
493.50 1.007776
493.60 1.007776
493.70 1.007776
493.80 1.007776
493.90 1.007776
494.00 1.007876
494.10 1.007876
494.20 1.007876
494.30 1.007876
494.40 1.007876
494.50 1.007876
494.60 1.007876
494.70 1.007876
494.80 1.007977
494.90 1.007977
495.00 1.007977
495.10 1.007977
495.20 1.007977
495.30 1.007977
495.40 1.007977
495.50 1.007977
495.60 1.007977
495.70 1.007977
495.80 1.007977
495.90 1.008078
496.00 1.008078
496.10 1.008078
496.20 1.008078
496.30 1.008078
496.40 1.008078
496.50 1.008078
496.60 1.008078
496.70 1.008078
496.80 1.008078
496.90 1.008078
497.00 1.008078
497.10 1.008078
497.20 1.008179
497.30 1.008179
497.40 1.008179
497.50 1.008179
497.60 1.008179
497.70 1.008179
497.80 1.008179
497.90 1.008179
498.00 1.008179
498.10 1.008179
498.20 1.008179
498.30 1.008179
498.40 1.008179
498.50 1.008179
498.60 1.008179
498.70 1.008179
498.80 1.008179
498.90 1.008179
499.00 1.008179
499.10 1.008179
499.20 1.008179
499.30 1.008179
499.40 1.008179
499.50 1.008179
499.60 1.008179
499.70 1.008179
499.80 1.008179
499.90 1.008179
500.00 1.008179
500.10 1.008179
500.20 1.008179
500.30 1.008179
500.40 1.008179
500.50 1.008179
500.60 1.008179
500.70 1.008179
500.80 1.008179
500.90 1.008179
501.00 1.008179
501.10 1.008179
501.20 1.008179
501.30 1.008179
501.40 1.008179
501.50 1.008179
501.60 1.008179
501.70 1.008179
501.80 1.008179
501.90 1.008179
502.00 1.008179
502.10 1.008179
502.20 1.008179
502.30 1.008179
502.40 1.008078
502.50 1.008078
502.60 1.008078
502.70 1.008078
502.80 1.008078
502.90 1.008078
503.00 1.008078
503.10 1.008078
503.20 1.008078
503.30 1.008078
503.40 1.008078
503.50 1.008078
503.60 1.008078
503.70 1.008078
503.80 1.008078
503.90 1.008078
504.00 1.008078
504.10 1.008078
504.20 1.008078
504.30 1.007977
504.40 1.007977
504.50 1.007977
504.60 1.007977
504.70 1.007977
504.80 1.007977
504.90 1.007977
505.00 1.007977
505.10 1.007977
505.20 1.007977
505.30 1.007977
505.40 1.007876
505.50 1.007876
505.60 1.007876
505.70 1.007876
505.80 1.007876
505.90 1.007876
506.00 1.007876
506.10 1.007876
506.20 1.007876
506.30 1.007776
506.40 1.007776
506.50 1.007776
506.60 1.007776
506.70 1.007776
506.80 1.007776
506.90 1.007776
507.00 1.007776
507.10 1.007675
507.20 1.007675
507.30 1.007675
507.40 1.007675
507.50 1.007675
507.60 1.007675
507.70 1.007675
507.80 1.007675
507.90 1.007574
508.00 1.007574
508.10 1.007574
508.20 1.007574
508.30 1.007574
508.40 1.007574
508.50 1.007574
508.60 1.007473
508.70 1.007473
508.80 1.007473
508.90 1.007473
509.00 1.007473
509.10 1.007473
509.20 1.007372
509.30 1.007372
509.40 1.007372
509.50 1.007372
509.60 1.007372
509.70 1.007372
509.80 1.007272
509.90 1.007272
510.00 1.007272
510.10 1.007272
510.20 1.007272
510.30 1.007272
510.40 1.007171
510.50 1.007171
510.60 1.007171
510.70 1.007171
510.80 1.007171
510.90 1.00707
511.00 1.00707
511.10 1.00707
511.20 1.00707
511.30 1.00707
511.40 1.006969
511.50 1.006969
511.60 1.006969
511.70 1.006969
511.80 1.006969
511.90 1.006969
512.00 1.006868
512.10 1.006868
512.20 1.006868
512.30 1.006868
512.40 1.006868
512.50 1.006767
512.60 1.006767
512.70 1.006767
512.80 1.006767
512.90 1.006667
513.00 1.006667
513.10 1.006667
513.20 1.006667
513.30 1.006667
513.40 1.006566
513.50 1.006566
513.60 1.006566
513.70 1.006566
513.80 1.006465
513.90 1.006465
514.00 1.006465
514.10 1.006465
514.20 1.006364
514.30 1.006364
514.40 1.006364
514.50 1.006364
514.60 1.006364
514.70 1.006263
514.80 1.006263
514.90 1.006263
515.00 1.006263
515.10 1.006163
515.20 1.006163
515.30 1.006163
515.40 1.006163
515.50 1.006062
515.60 1.006062
515.70 1.006062
515.80 1.005961
515.90 1.005961
516.00 1.005961
516.10 1.005961
516.20 1.00586
516.30 1.00586
516.40 1.00586
516.50 1.00586
516.60 1.005759
516.70 1.005759
516.80 1.005759
516.90 1.005658
517.00 1.005658
517.10 1.005658
517.20 1.005658
517.30 1.005558
517.40 1.005558
517.50 1.005558
517.60 1.005457
517.70 1.005457
517.80 1.005457
517.90 1.005457
518.00 1.005356
518.10 1.005356
518.20 1.005356
518.30 1.005255
518.40 1.005255
518.50 1.005255
518.60 1.005154
518.70 1.005154
518.80 1.005154
518.90 1.005154
519.00 1.005054
519.10 1.005054
519.20 1.005054
519.30 1.004953
519.40 1.004953
519.50 1.004953
519.60 1.004852
519.70 1.004852
519.80 1.004852
519.90 1.004751
520.00 1.004751
520.10 1.004751
520.20 1.00465
520.30 1.00465
520.40 1.00465
520.50 1.004549
520.60 1.004549
520.70 1.004549
520.80 1.004449
520.90 1.004449
521.00 1.004449
521.10 1.004348
521.20 1.004348
521.30 1.004348
521.40 1.004247
521.50 1.004247
521.60 1.004247
521.70 1.004146
521.80 1.004146
521.90 1.004146
522.00 1.004045
522.10 1.004045
522.20 1.004045
522.30 1.003945
522.40 1.003945
522.50 1.003945
522.60 1.003844
522.70 1.003844
522.80 1.003743
522.90 1.003743
523.00 1.003743
523.10 1.003642
523.20 1.003642
523.30 1.003642
523.40 1.003541
523.50 1.003541
523.60 1.00344
523.70 1.00344
523.80 1.00344
523.90 1.00334
524.00 1.00334
524.10 1.003239
524.20 1.003239
524.30 1.003239
524.40 1.003138
524.50 1.003138
524.60 1.003037
524.70 1.003037
524.80 1.003037
524.90 1.002936
525.00 1.002936
525.10 1.002836
525.20 1.002836
525.30 1.002836
525.40 1.002735
525.50 1.002735
525.60 1.002634
525.70 1.002634
525.80 1.002634
525.90 1.002533
526.00 1.002533
526.10 1.002432
526.20 1.002432
526.30 1.002432
526.40 1.002331
526.50 1.002331
526.60 1.002231
526.70 1.002231
526.80 1.002231
526.90 1.00213
527.00 1.00213
527.10 1.002029
527.20 1.002029
527.30 1.002029
527.40 1.001928
527.50 1.001928
527.60 1.001827
527.70 1.001827
527.80 1.001727
527.90 1.001727
528.00 1.001727
528.10 1.001626
528.20 1.001626
528.30 1.001525
528.40 1.001525
528.50 1.001424
528.60 1.001424
528.70 1.001323
528.80 1.001323
528.90 1.001222
529.00 1.001222
529.10 1.001222
529.20 1.001122
529.30 1.001122
529.40 1.001021
529.50 1.001021
529.60 1.00092
529.70 1.00092
529.80 1.000819
529.90 1.000819
530.00 1.000718
530.10 1.000718
530.20 1.000718
530.30 1.000618
530.40 1.000618
530.50 1.000517
530.60 1.000517
530.70 1.000416
530.80 1.000416
530.90 1.000315
531.00 1.000315
531.10 1.000214
531.20 1.000214
531.30 1.000113
531.40 1.000113
531.50 1.000013
531.60 1.000013
531.70 0.9999118
531.80 0.9999118
531.90 0.999811
532.00 0.999811
532.10 0.9997102
532.20 0.9997102
532.30 0.9996093
532.40 0.9996093
532.50 0.9995085
532.60 0.9995085
532.70 0.9994077
532.80 0.9994077
532.90 0.9993069
533.00 0.9993069
533.10 0.9992061
533.20 0.9992061
533.30 0.9991053
533.40 0.9991053
533.50 0.9990044
533.60 0.9990044
533.70 0.9989036
533.80 0.9989036
533.90 0.9988028
534.00 0.9988028
534.10 0.998702
534.20 0.998702
534.30 0.9986012
534.40 0.9986012
534.50 0.9985003
534.60 0.9985003
534.70 0.9983995
534.80 0.9983995
534.90 0.9982987
535.00 0.9982987
535.10 0.9981979
535.20 0.9981979
535.30 0.9980971
535.40 0.9979963
535.50 0.9979963
535.60 0.9978954
535.70 0.9978954
535.80 0.9977946
535.90 0.9977946
536.00 0.9976938
536.10 0.9976938
536.20 0.997593
536.30 0.997593
536.40 0.9974922
536.50 0.9973913
536.60 0.9973913
536.70 0.9972905
536.80 0.9972905
536.90 0.9971897
537.00 0.9971897
537.10 0.9970889
537.20 0.9970889
537.30 0.9969881
537.40 0.9969881
537.50 0.9968873
537.60 0.9967864
537.70 0.9967864
537.80 0.9966856
537.90 0.9966856
538.00 0.9965848
538.10 0.9965848
538.20 0.996484
538.30 0.9963832
538.40 0.9963832
538.50 0.9962824
538.60 0.9962824
538.70 0.9961815
538.80 0.9961815
538.90 0.9960807
539.00 0.9959799
539.10 0.9959799
539.20 0.9958791
539.30 0.9958791
539.40 0.9957783
539.50 0.9956774
539.60 0.9956774
539.70 0.9955766
539.80 0.9955766
539.90 0.9954758
540.00 0.995375
540.10 0.995375
540.20 0.9952742
540.30 0.9952742
540.40 0.9951734
540.50 0.9951734
540.60 0.9950725
540.70 0.9949717
540.80 0.9949717
540.90 0.9948709
541.00 0.9948709
541.10 0.9947701
541.20 0.9946693
541.30 0.9946693
541.40 0.9945684
541.50 0.9945684
541.60 0.9944676
541.70 0.9943668
541.80 0.9943668
541.90 0.994266
542.00 0.9941652
542.10 0.9941652
542.20 0.9940644
542.30 0.9940644
542.40 0.9939635
542.50 0.9938627
542.60 0.9938627
542.70 0.9937619
542.80 0.9936611
542.90 0.9936611
543.00 0.9935603
543.10 0.9935603
543.20 0.9934595
543.30 0.9933586
543.40 0.9933586
543.50 0.9932578
543.60 0.993157
543.70 0.993157
543.80 0.9930562
543.90 0.9929554
544.00 0.9929554
544.10 0.9928545
544.20 0.9928545
544.30 0.9927537
544.40 0.9926529
544.50 0.9926529
544.60 0.9925521
544.70 0.9924513
544.80 0.9924513
544.90 0.9923505
545.00 0.9922496
545.10 0.9922496
545.20 0.9921488
545.30 0.992048
545.40 0.992048
545.50 0.9919472
545.60 0.9919472
545.70 0.9918464
545.80 0.9917455
545.90 0.9917455
546.00 0.9916447
546.10 0.9915439
546.20 0.9915439
546.30 0.9914431
546.40 0.9913423
546.50 0.9913423
546.60 0.9912415
546.70 0.9911406
546.80 0.9910398
546.90 0.9910398
547.00 0.990939
547.10 0.9908382
547.20 0.9908382
547.30 0.9907374
547.40 0.9906366
547.50 0.9906366
547.60 0.9905357
547.70 0.9904349
547.80 0.9904349
547.90 0.9903341
548.00 0.9902333
548.10 0.9902333
548.20 0.9901325
548.30 0.9900316
548.40 0.9900316
548.50 0.9899308
548.60 0.98983
548.70 0.98983
548.80 0.9897292
548.90 0.9896284
549.00 0.9896284
549.10 0.9895276
549.20 0.9894267
549.30 0.9893259
549.40 0.9893259
549.50 0.9892251
549.60 0.9891243
549.70 0.9891243
549.80 0.9890235
549.90 0.9889226
550.00 0.9888218
550.10 0.9888218
550.20 0.988721
550.30 0.9886202
550.40 0.9886202
550.50 0.9885194
550.60 0.9884186
550.70 0.9883177
550.80 0.9883177
550.90 0.9882169
551.00 0.9881161
551.10 0.9881161
551.20 0.9880153
551.30 0.9879145
551.40 0.9878137
551.50 0.9878137
551.60 0.9877128
551.70 0.987612
551.80 0.9875112
551.90 0.9875112
552.00 0.9874104
552.10 0.9873096
552.20 0.9873096
552.30 0.9872087
552.40 0.9871079
552.50 0.9870071
552.60 0.9870071
552.70 0.9869063
552.80 0.9868055
552.90 0.9868055
553.00 0.9867047
553.10 0.9866038
553.20 0.986503
553.30 0.986503
553.40 0.9864022
553.50 0.9863014
553.60 0.9862006
553.70 0.9862006
553.80 0.9860997
553.90 0.9859989
554.00 0.9858981
554.10 0.9858981
554.20 0.9857973
554.30 0.9856965
554.40 0.9855957
554.50 0.9855957
554.60 0.9854948
554.70 0.985394
554.80 0.9852932
554.90 0.9852932
555.00 0.9851924
555.10 0.9850916
555.20 0.9849907
555.30 0.9848899
555.40 0.9848899
555.50 0.9847891
555.60 0.9846883
555.70 0.9845875
555.80 0.9845875
555.90 0.9844867
556.00 0.9843858
556.10 0.984285
556.20 0.984285
556.30 0.9841842
556.40 0.9840834
556.50 0.9839826
556.60 0.9839826
556.70 0.9838818
556.80 0.9837809
556.90 0.9836801
557.00 0.9835793
557.10 0.9835793
557.20 0.9834785
557.30 0.9833777
557.40 0.9832768
557.50 0.983176
557.60 0.983176
557.70 0.9830752
557.80 0.9829744
557.90 0.9828736
558.00 0.9828736
558.10 0.9827728
558.20 0.9826719
558.30 0.9825711
558.40 0.9824703
558.50 0.9824703
558.60 0.9823695
558.70 0.9822687
558.80 0.9821678
558.90 0.982067
559.00 0.982067
559.10 0.9819662
559.20 0.9818654
559.30 0.9817646
559.40 0.9816638
559.50 0.9816638
559.60 0.9815629
559.70 0.9814621
559.80 0.9813613
559.90 0.9812605
560.00 0.9812605
560.10 0.9811597
560.20 0.9810589
560.30 0.980958
560.40 0.9808572
560.50 0.9808572
560.60 0.9807564
560.70 0.9806556
560.80 0.9805548
560.90 0.9804539
561.00 0.9803531
561.10 0.9803531
561.20 0.9802523
561.30 0.9801515
561.40 0.9800507
561.50 0.9799499
561.60 0.979849
561.70 0.979849
561.80 0.9797482
561.90 0.9796474
562.00 0.9795466
562.10 0.9794458
562.20 0.9793449
562.30 0.9793449
562.40 0.9792441
562.50 0.9791433
562.60 0.9790425
562.70 0.9789417
562.80 0.9789417
562.90 0.9788409
563.00 0.97874
563.10 0.9786392
563.20 0.9785384
563.30 0.9784376
563.40 0.9784376
563.50 0.9783368
563.60 0.978236
563.70 0.9781351
563.80 0.9780343
563.90 0.9779335
564.00 0.9778327
564.10 0.9778327
564.20 0.9777319
564.30 0.977631
564.40 0.9775302
564.50 0.9774294
564.60 0.9773286
564.70 0.9772278
564.80 0.9772278
564.90 0.977127
565.00 0.9770261
565.10 0.9769253
565.20 0.9768245
565.30 0.9767237
565.40 0.9766229
565.50 0.9766229
565.60 0.976522
565.70 0.9764212
565.80 0.9763204
565.90 0.9762196
566.00 0.9761188
566.10 0.976018
566.20 0.976018
566.30 0.9759171
566.40 0.9758163
566.50 0.9757155
566.60 0.9756147
566.70 0.9755139
566.80 0.9754131
566.90 0.9753122
567.00 0.9753122
567.10 0.9752114
567.20 0.9751106
567.30 0.9750098
567.40 0.974909
567.50 0.9748081
567.60 0.9747073
567.70 0.9746065
567.80 0.9745057
567.90 0.9745057
568.00 0.9744049
568.10 0.9743041
568.20 0.9742032
568.30 0.9741024
568.40 0.9740016
568.50 0.9739008
568.60 0.9738
568.70 0.9736991
568.80 0.9736991
568.90 0.9735983
569.00 0.9734975
569.10 0.9733967
569.20 0.9732959
569.30 0.9731951
569.40 0.9730942
569.50 0.9729934
569.60 0.9728926
569.70 0.9728926
569.80 0.9727918
569.90 0.972691
570.00 0.9725901
570.10 0.9724893
570.20 0.9723885
570.30 0.9722877
570.40 0.9721869
570.50 0.9720861
570.60 0.9719852
570.70 0.9719852
570.80 0.9718844
570.90 0.9717836
571.00 0.9716828
571.10 0.971582
571.20 0.9714812
571.30 0.9713803
571.40 0.9712795
571.50 0.9711787
571.60 0.9710779
571.70 0.9709771
571.80 0.9708762
571.90 0.9708762
572.00 0.9707754
572.10 0.9706746
572.20 0.9705738
572.30 0.970473
572.40 0.9703722
572.50 0.9702713
572.60 0.9701705
572.70 0.9700697
572.80 0.9699689
572.90 0.9698681
573.00 0.9697672
573.10 0.9697672
573.20 0.9696664
573.30 0.9695656
573.40 0.9694648
573.50 0.969364
573.60 0.9692632
573.70 0.9691623
573.80 0.9690615
573.90 0.9689607
574.00 0.9688599
574.10 0.9687591
574.20 0.9686583
574.30 0.9685574
574.40 0.9684566
574.50 0.9683558
574.60 0.968255
574.70 0.968255
574.80 0.9681542
574.90 0.9680533
575.00 0.9679525
575.10 0.9678517
575.20 0.9677509
575.30 0.9676501
575.40 0.9675493
575.50 0.9674484
575.60 0.9673476
575.70 0.9672468
575.80 0.967146
575.90 0.9670452
576.00 0.9669443
576.10 0.9668435
576.20 0.9667427
576.30 0.9666419
576.40 0.9665411
576.50 0.9664403
576.60 0.9664403
576.70 0.9663394
576.80 0.9662386
576.90 0.9661378
577.00 0.966037
577.10 0.9659362
577.20 0.9658354
577.30 0.9657345
577.40 0.9656337
577.50 0.9655329
577.60 0.9654321
577.70 0.9653313
577.80 0.9652304
577.90 0.9651296
578.00 0.9650288
578.10 0.964928
578.20 0.9648272
578.30 0.9647264
578.40 0.9646255
578.50 0.9645247
578.60 0.9644239
578.70 0.9643231
578.80 0.9642223
578.90 0.9641214
579.00 0.9640206
579.10 0.9639198
579.20 0.963819
579.30 0.9637182
579.40 0.9636174
579.50 0.9635165
579.60 0.9634157
579.70 0.9633149
579.80 0.9632141
579.90 0.9631133
580.00 0.9630125
580.10 0.9630125
580.20 0.9629116
580.30 0.9628108
580.40 0.96271
580.50 0.9626092
580.60 0.9625084
580.70 0.9624075
580.80 0.9623067
580.90 0.9622059
581.00 0.9621051
581.10 0.9620043
581.20 0.9619035
581.30 0.9618026
581.40 0.9617018
581.50 0.961601
581.60 0.9615002
581.70 0.9613994
581.80 0.9612985
581.90 0.9611977
582.00 0.9610969
582.10 0.9609961
582.20 0.9608953
582.30 0.9607945
582.40 0.9606936
582.50 0.9605928
582.60 0.960492
582.70 0.9603912
582.80 0.9602904
582.90 0.9601895
583.00 0.9600887
583.10 0.9599879
583.20 0.9598871
583.30 0.9597863
583.40 0.9596855
583.50 0.9594838
583.60 0.959383
583.70 0.9592822
583.80 0.9591814
583.90 0.9590806
584.00 0.9589797
584.10 0.9588789
584.20 0.9587781
584.30 0.9586773
584.40 0.9585765
584.50 0.9584756
584.60 0.9583748
584.70 0.958274
584.80 0.9581732
584.90 0.9580724
585.00 0.9579716
585.10 0.9578707
585.20 0.9577699
585.30 0.9576691
585.40 0.9575683
585.50 0.9574675
585.60 0.9573666
585.70 0.9572658
585.80 0.957165
585.90 0.9570642
586.00 0.9569634
586.10 0.9568626
586.20 0.9567617
586.30 0.9566609
586.40 0.9565601
586.50 0.9564593
586.60 0.9563585
586.70 0.9562577
586.80 0.9561568
586.90 0.956056
587.00 0.9559552
587.10 0.9558544
587.20 0.9557536
587.30 0.9556527
587.40 0.9555519
587.50 0.9553503
587.60 0.9552495
587.70 0.9551487
587.80 0.9550478
587.90 0.954947
588.00 0.9548462
588.10 0.9547454
588.20 0.9546446
588.30 0.9545437
588.40 0.9544429
588.50 0.9543421
588.60 0.9542413
588.70 0.9541405
588.80 0.9540397
588.90 0.9539388
589.00 0.953838
589.10 0.9537372
589.20 0.9536364
589.30 0.9535356
589.40 0.9534348
589.50 0.9533339
589.60 0.9531323
589.70 0.9530315
589.80 0.9529307
589.90 0.9528298
590.00 0.952729
590.10 0.9526282
590.20 0.9525274
590.30 0.9524266
590.40 0.9523258
590.50 0.9522249
590.60 0.9521241
590.70 0.9520233
590.80 0.9519225
590.90 0.9518217
591.00 0.9517208
591.10 0.95162
591.20 0.9514184
591.30 0.9513176
591.40 0.9512168
591.50 0.9511159
591.60 0.9510151
591.70 0.9509143
591.80 0.9508135
591.90 0.9507127
592.00 0.9506119
592.10 0.950511
592.20 0.9504102
592.30 0.9503094
592.40 0.9502086
592.50 0.9501078
592.60 0.9500069
592.70 0.9498053
592.80 0.9497045
592.90 0.9496037
593.00 0.9495029
593.10 0.949402
593.20 0.9493012
593.30 0.9492004
593.40 0.9490996
593.50 0.9489988
593.60 0.9488979
593.70 0.9487971
593.80 0.9486963
593.90 0.9485955
594.00 0.9483939
594.10 0.948293
594.20 0.9481922
594.30 0.9480914
594.40 0.9479906
594.50 0.9478898
594.60 0.9477889
594.70 0.9476881
594.80 0.9475873
594.90 0.9474865
595.00 0.9473857
595.10 0.947184
595.20 0.9470832
595.30 0.9469824
595.40 0.9468816
595.50 0.9467808
595.60 0.94668
595.70 0.9465791
595.80 0.9464783
595.90 0.9463775
596.00 0.9462767
596.10 0.946075
596.20 0.9459742
596.30 0.9458734
596.40 0.9457726
596.50 0.9456718
596.60 0.945571
596.70 0.9454701
596.80 0.9453693
596.90 0.9452685
597.00 0.9451677
597.10 0.944966
597.20 0.9448652
597.30 0.9447644
597.40 0.9446636
597.50 0.9445628
597.60 0.944462
597.70 0.9443611
597.80 0.9442603
597.90 0.9441595
598.00 0.9439579
598.10 0.9438571
598.20 0.9437562
598.30 0.9436554
598.40 0.9435546
598.50 0.9434538
598.60 0.943353
598.70 0.9432521
598.80 0.9431513
598.90 0.9429497
599.00 0.9428489
599.10 0.9427481
599.20 0.9426472
599.30 0.9425464
599.40 0.9424456
599.50 0.9423448
599.60 0.942244
599.70 0.9420423
599.80 0.9419415
599.90 0.9418407
600.00 0.9417399
600.10 0.9416391
600.20 0.9415382
600.30 0.9414374
600.40 0.9413366
600.50 0.941135
600.60 0.9410342
600.70 0.9409333
600.80 0.9408325
600.90 0.9407317
601.00 0.9406309
601.10 0.9405301
601.20 0.9404292
601.30 0.9402276
601.40 0.9401268
601.50 0.940026
601.60 0.9399252
601.70 0.9398243
601.80 0.9397235
601.90 0.9396227
602.00 0.9394211
602.10 0.9393202
602.20 0.9392194
602.30 0.9391186
602.40 0.9390178
602.50 0.938917
602.60 0.9388162
602.70 0.9387153
602.80 0.9385137
602.90 0.9384129
603.00 0.9383121
603.10 0.9382113
603.20 0.9381104
603.30 0.9380096
603.40 0.937808
603.50 0.9377072
603.60 0.9376063
603.70 0.9375055
603.80 0.9374047
603.90 0.9373039
604.00 0.9372031
604.10 0.9370014
604.20 0.9369006
604.30 0.9367998
604.40 0.936699
604.50 0.9365982
604.60 0.9364973
604.70 0.9363965
604.80 0.9361949
604.90 0.9360941
605.00 0.9359933
605.10 0.9358924
605.20 0.9357916
605.30 0.9356908
605.40 0.93559
605.50 0.9353883
605.60 0.9352875
605.70 0.9351867
605.80 0.9350859
605.90 0.9349851
606.00 0.9348843
606.10 0.9346826
606.20 0.9345818
606.30 0.934481
606.40 0.9343802
606.50 0.9342794
606.60 0.9341785
606.70 0.9339769
606.80 0.9338761
606.90 0.9337753
607.00 0.9336744
607.10 0.9335736
607.20 0.9334728
607.30 0.9332712
607.40 0.9331704
607.50 0.9330695
607.60 0.9329687
607.70 0.9328679
607.80 0.9327671
607.90 0.9325654
608.00 0.9324646
608.10 0.9323638
608.20 0.932263
608.30 0.9321622
608.40 0.9320614
608.50 0.9318597
608.60 0.9317589
608.70 0.9316581
608.80 0.9315573
608.90 0.9314565
609.00 0.9313556
609.10 0.931154
609.20 0.9310532
609.30 0.9309524
609.40 0.9308515
609.50 0.9307507
609.60 0.9306499
609.70 0.9304483
609.80 0.9303475
609.90 0.9302466
610.00 0.9301458
610.10 0.930045
610.20 0.9299442
610.30 0.9297425
610.40 0.9296417
610.50 0.9295409
610.60 0.9294401
610.70 0.9293393
610.80 0.9291376
610.90 0.9290368
611.00 0.928936
611.10 0.9288352
611.20 0.9287344
611.30 0.9285327
611.40 0.9284319
611.50 0.9283311
611.60 0.9282303
611.70 0.9281295
611.80 0.9279278
611.90 0.927827
612.00 0.9277262
612.10 0.9276254
612.20 0.9275246
612.30 0.9274237
612.40 0.9272221
612.50 0.9271213
612.60 0.9270205
612.70 0.9269196
612.80 0.9268188
612.90 0.9266172
613.00 0.9265164
613.10 0.9264156
613.20 0.9263147
613.30 0.9262139
613.40 0.9260123
613.50 0.9259115
613.60 0.9258107
613.70 0.9257098
613.80 0.925609
613.90 0.9254074
614.00 0.9253066
614.10 0.9252057
614.20 0.9251049
614.30 0.9250041
614.40 0.9248025
614.50 0.9247017
614.60 0.9246008
614.70 0.9245
614.80 0.9243992
614.90 0.9241976
615.00 0.9240967
615.10 0.9239959
615.20 0.9238951
615.30 0.9237943
615.40 0.9235927
615.50 0.9234918
615.60 0.923391
615.70 0.9232902
615.80 0.9231894
615.90 0.9229877
616.00 0.9228869
616.10 0.9227861
616.20 0.9226853
616.30 0.9225845
616.40 0.9223828
616.50 0.922282
616.60 0.9221812
616.70 0.9220804
616.80 0.9218788
616.90 0.9217779
617.00 0.9216771
617.10 0.9215763
617.20 0.9214755
617.30 0.9212738
617.40 0.921173
617.50 0.9210722
617.60 0.9209714
617.70 0.9207698
617.80 0.9206689
617.90 0.9205681
618.00 0.9204673
618.10 0.9203665
618.20 0.9201648
618.30 0.920064
618.40 0.9199632
618.50 0.9198624
618.60 0.9196608
618.70 0.9195599
618.80 0.9194591
618.90 0.9193583
619.00 0.9192575
619.10 0.9190559
619.20 0.918955
619.30 0.9188542
619.40 0.9187534
619.50 0.9185518
619.60 0.9184509
619.70 0.9183501
619.80 0.9182493
619.90 0.9181485
620.00 0.9179469
620.10 0.917846
620.20 0.9177452
620.30 0.9176444
620.40 0.9174428
620.50 0.9173419
620.60 0.9172411
620.70 0.9171403
620.80 0.9169387
620.90 0.9168379
621.00 0.916737
621.10 0.9166362
621.20 0.9165354
621.30 0.9163338
621.40 0.916233
621.50 0.9161321
621.60 0.9160313
621.70 0.9158297
621.80 0.9157289
621.90 0.915628
622.00 0.9155272
622.10 0.9153256
622.20 0.9152248
622.30 0.915124
622.40 0.9150231
622.50 0.9148215
622.60 0.9147207
622.70 0.9146199
622.80 0.914519
622.90 0.9144182
623.00 0.9142166
623.10 0.9141158
623.20 0.914015
623.30 0.9139141
623.40 0.9137125
623.50 0.9136117
623.60 0.9135109
623.70 0.9134101
623.80 0.9132084
623.90 0.9131076
624.00 0.9130068
624.10 0.912906
624.20 0.9127043
624.30 0.9126035
624.40 0.9125027
624.50 0.9124019
624.60 0.9122002
624.70 0.9120994
624.80 0.9119986
624.90 0.9118978
625.00 0.9116961
625.10 0.9115953
625.20 0.9114945
625.30 0.9113937
625.40 0.9111921
625.50 0.9110912
625.60 0.9109904
625.70 0.9108896
625.80 0.910688
625.90 0.9105871
626.00 0.9104863
626.10 0.9103855
626.20 0.9101839
626.30 0.9100831
626.40 0.9099822
626.50 0.9098814
626.60 0.9096798
626.70 0.909579
626.80 0.9094782
626.90 0.9092765
627.00 0.9091757
627.10 0.9090749
627.20 0.9089741
627.30 0.9087724
627.40 0.9086716
627.50 0.9085708
627.60 0.90847
627.70 0.9082683
627.80 0.9081675
627.90 0.9080667
628.00 0.9079659
628.10 0.9077642
628.20 0.9076634
628.30 0.9075626
628.40 0.907361
628.50 0.9072602
628.60 0.9071593
628.70 0.9070585
628.80 0.9068569
628.90 0.9067561
629.00 0.9066553
629.10 0.9065544
629.20 0.9063528
629.30 0.906252
629.40 0.9061512
629.50 0.9060503
629.60 0.9058487
629.70 0.9057479
629.80 0.9056471
629.90 0.9054454
630.00 0.9053446
630.10 0.9052438
630.20 0.905143
630.30 0.9049413
630.40 0.9048405
630.50 0.9047397
630.60 0.9046389
630.70 0.9044373
630.80 0.9043364
630.90 0.9042356
631.00 0.904034
631.10 0.9039332
631.20 0.9038324
631.30 0.9037315
631.40 0.9035299
631.50 0.9034291
631.60 0.9033283
631.70 0.9031266
631.80 0.9030258
631.90 0.902925
632.00 0.9028242
632.10 0.9026225
632.20 0.9025217
632.30 0.9024209
632.40 0.9023201
632.50 0.9021184
632.60 0.9020176
632.70 0.9019168
632.80 0.9017152
632.90 0.9016144
633.00 0.9015135
633.10 0.9013119
633.20 0.9012111
633.30 0.9011103
633.40 0.9010095
633.50 0.9008078
633.60 0.900707
633.70 0.9006062
633.80 0.9004045
633.90 0.9003037
634.00 0.9002029
634.10 0.9001021
634.20 0.8999005
634.30 0.8997996
634.40 0.8996988
634.50 0.8994972
634.60 0.8993964
634.70 0.8992955
634.80 0.8991947
634.90 0.8989931
635.00 0.8988923
635.10 0.8987915
635.20 0.8985898
635.30 0.898489
635.40 0.8983882
635.50 0.8981865
635.60 0.8980857
635.70 0.8979849
635.80 0.8977833
635.90 0.8976825
636.00 0.8975816
636.10 0.8974808
636.20 0.8972792
636.30 0.8971784
636.40 0.8970776
636.50 0.8968759
636.60 0.8967751
636.70 0.8966743
636.80 0.8964726
636.90 0.8963718
637.00 0.896271
637.10 0.8961702
637.20 0.8959686
637.30 0.8958677
637.40 0.8957669
637.50 0.8955653
637.60 0.8954645
637.70 0.8953636
637.80 0.895162
637.90 0.8950612
638.00 0.8949604
638.10 0.8947587
638.20 0.8946579
638.30 0.8945571
638.40 0.8944563
638.50 0.8942547
638.60 0.8941538
638.70 0.894053
638.80 0.8938514
638.90 0.8937506
639.00 0.8936497
639.10 0.8934481
639.20 0.8933473
639.30 0.8932465
639.40 0.8930448
639.50 0.892944
639.60 0.8928432
639.70 0.8926416
639.80 0.8925407
639.90 0.8924399
640.00 0.8922383
640.10 0.8921375
640.20 0.8920367
640.30 0.891835
640.40 0.8917342
640.50 0.8916334
640.60 0.8914318
640.70 0.8913309
640.80 0.8912301
640.90 0.8910285
641.00 0.8909277
641.10 0.8908268
641.20 0.8906252
641.30 0.8905244
641.40 0.8904236
641.50 0.8902219
641.60 0.8901211
641.70 0.8900203
641.80 0.8898187
641.90 0.8897178
642.00 0.889617
642.10 0.8894154
642.20 0.8893146
642.30 0.8892138
642.40 0.8890121
642.50 0.8889113
642.60 0.8888105
642.70 0.8886089
642.80 0.888508
642.90 0.8883064
643.00 0.8882056
643.10 0.8881048
643.20 0.8879031
643.30 0.8878023
643.40 0.8877015
643.50 0.8874999
643.60 0.887399
643.70 0.8872982
643.80 0.8870966
643.90 0.8869958
644.00 0.8867941
644.10 0.8866933
644.20 0.8865925
644.30 0.8863909
644.40 0.88629
644.50 0.8861892
644.60 0.8859876
644.70 0.8858868
644.80 0.8856851
644.90 0.8855843
645.00 0.8854835
645.10 0.8852819
645.20 0.885181
645.30 0.8850802
645.40 0.8848786
645.50 0.8847778
645.60 0.8845761
645.70 0.8844753
645.80 0.8842737
645.90 0.8841729
646.00 0.884072
646.10 0.8838704
646.20 0.8837696
646.30 0.883568
646.40 0.8834671
646.50 0.8833663
646.60 0.8831647
646.70 0.8830639
646.80 0.8828622
646.90 0.8827614
647.00 0.8825598
647.10 0.882459
647.20 0.8822573
647.30 0.8821565
647.40 0.8819549
647.50 0.8818541
647.60 0.8816524
647.70 0.8815516
647.80 0.88135
647.90 0.8812491
648.00 0.8811483
648.10 0.8809467
648.20 0.8808459
648.30 0.8806442
648.40 0.8804426
648.50 0.8803418
648.60 0.8801401
648.70 0.8800393
648.80 0.8798377
648.90 0.8797369
649.00 0.8795352
649.10 0.8794344
649.20 0.8792328
649.30 0.8790312
649.40 0.8789303
649.50 0.8787287
649.60 0.8785271
649.70 0.8784262
649.80 0.8782246
649.90 0.878023
650.00 0.8778213
650.10 0.8777205
650.20 0.8775189
650.30 0.8773172
650.40 0.8771156
650.50 0.876914
650.60 0.8767123
650.70 0.8766115
650.80 0.8764099
650.90 0.8762083
651.00 0.8760066
651.10 0.875805
651.20 0.8756033
651.30 0.8754017
651.40 0.8750993
651.50 0.8748976
651.60 0.874696
651.70 0.8743935
651.80 0.8741919
651.90 0.8739903
652.00 0.8736878
652.10 0.8734862
652.20 0.8731837
652.30 0.8729821
652.40 0.8725788
652.50 0.8722764
652.60 0.8718731
652.70 0.8715706
652.80 0.8711674
652.90 0.8707641
653.00 0.8704616
653.10 0.8700584
653.20 0.8697559
653.30 0.8693526
653.40 0.8686469
653.50 0.8679412
653.60 0.8672355
653.70 0.8665297
653.80 0.865824
653.90 0.8651183
654.00 0.8644126
654.10 0.8637068
654.20 0.8630011
654.30 0.8620937
654.40 0.8605815
654.50 0.85917
654.60 0.8576578
654.70 0.8561455
654.80 0.8543308
654.90 0.8512054
655.00 0.8480801
655.10 0.8449547
655.20 0.8418294
655.30 0.8380991
655.40 0.8323525
655.50 0.8260009
655.60 0.8170282
655.70 0.8069464
655.80 0.7921261
655.90 0.7749871
656.00 0.7481695
656.10 0.7192348
656.20 0.670943
656.30 0.6171063
656.40 0.6916107
656.50 0.7310305
656.60 0.7578481
656.70 0.7820443
656.80 0.7966629
656.90 0.8100717
657.00 0.8187421
657.10 0.8268075
657.20 0.8323525
657.30 0.8372925
657.40 0.8402163
657.50 0.8430392
657.60 0.8459629
657.70 0.8487858
657.80 0.8513062
657.90 0.852516
658.00 0.8537259
658.10 0.8549357
658.20 0.8561455
658.30 0.8572545
658.40 0.8576578
658.50 0.8581618
658.60 0.8585651
658.70 0.8589684
658.80 0.8593717
658.90 0.8598758
659.00 0.860279
659.10 0.8606823
659.20 0.8610856
659.30 0.8614888
659.40 0.8615897
659.50 0.8615897
659.60 0.8616905
659.70 0.8617913
659.80 0.8618921
659.90 0.8619929
660.00 0.8619929
660.10 0.8620937
660.20 0.8621946
660.30 0.8622954
660.40 0.8621946
660.50 0.8621946
660.60 0.8621946
660.70 0.8620937
660.80 0.8620937
660.90 0.8620937
661.00 0.8619929
661.10 0.8619929
661.20 0.8619929
661.30 0.8618921
661.40 0.8618921
661.50 0.8617913
661.60 0.8616905
661.70 0.8615897
661.80 0.8615897
661.90 0.8614888
662.00 0.861388
662.10 0.8612872
662.20 0.8612872
662.30 0.8611864
662.40 0.8610856
662.50 0.8609847
662.60 0.8608839
662.70 0.8607831
662.80 0.8606823
662.90 0.8605815
663.00 0.8604807
663.10 0.8603798
663.20 0.860279
663.30 0.8601782
663.40 0.8599766
663.50 0.8598758
663.60 0.8597749
663.70 0.8596741
663.80 0.8595733
663.90 0.8594725
664.00 0.8593717
664.10 0.85917
664.20 0.8590692
664.30 0.8589684
664.40 0.8588676
664.50 0.8587668
664.60 0.8586659
664.70 0.8584643
664.80 0.8583635
664.90 0.8582627
665.00 0.8581618
665.10 0.858061
665.20 0.8578594
665.30 0.8577586
665.40 0.8576578
665.50 0.8575569
665.60 0.8573553
665.70 0.8572545
665.80 0.8571537
665.90 0.8570529
666.00 0.8568512
666.10 0.8567504
666.20 0.8566496
666.30 0.8565488
666.40 0.8563471
666.50 0.8562463
666.60 0.8561455
666.70 0.8559439
666.80 0.855843
666.90 0.8557422
667.00 0.8556414
667.10 0.8554398
667.20 0.8553389
667.30 0.8552381
667.40 0.8550365
667.50 0.8549357
667.60 0.8548349
667.70 0.854734
667.80 0.8545324
667.90 0.8544316
668.00 0.8543308
668.10 0.8541291
668.20 0.8540283
668.30 0.8539275
668.40 0.8537259
668.50 0.853625
668.60 0.8535242
668.70 0.8533226
668.80 0.8532218
668.90 0.853121
669.00 0.8530201
669.10 0.8528185
669.20 0.8527177
669.30 0.8526169
669.40 0.8524152
669.50 0.8523144
669.60 0.8522136
669.70 0.852012
669.80 0.8519111
669.90 0.8518103
670.00 0.8516087
670.10 0.8515079
670.20 0.8514071
670.30 0.8512054
670.40 0.8511046
670.50 0.8510038
670.60 0.8508021
670.70 0.8507013
670.80 0.8504997
670.90 0.8503989
671.00 0.8502981
671.10 0.8500964
671.20 0.8499956
671.30 0.8498948
671.40 0.8496931
671.50 0.8495923
671.60 0.8494915
671.70 0.8492899
671.80 0.8491891
671.90 0.8490882
672.00 0.8488866
672.10 0.8487858
672.20 0.848685
672.30 0.8484833
672.40 0.8483825
672.50 0.8481809
672.60 0.8480801
672.70 0.8479792
672.80 0.8477776
672.90 0.8476768
673.00 0.847576
673.10 0.8473743
673.20 0.8472735
673.30 0.8471727
673.40 0.8469711
673.50 0.8468702
673.60 0.8467694
673.70 0.8465678
673.80 0.846467
673.90 0.8463662
674.00 0.8461645
674.10 0.8460637
674.20 0.8458621
674.30 0.8457612
674.40 0.8456604
674.50 0.8454588
674.60 0.845358
674.70 0.8452572
674.80 0.8450555
674.90 0.8449547
675.00 0.8448539
675.10 0.8446523
675.20 0.8445514
675.30 0.8443498
675.40 0.844249
675.50 0.8441482
675.60 0.8439465
675.70 0.8438457
675.80 0.8437449
675.90 0.8435433
676.00 0.8434424
676.10 0.8432408
676.20 0.84314
676.30 0.8430392
676.40 0.8428375
676.50 0.8427367
676.60 0.8426359
676.70 0.8424343
676.80 0.8423334
676.90 0.8421318
677.00 0.842031
677.10 0.8419302
677.20 0.8417285
677.30 0.8416277
677.40 0.8415269
677.50 0.8413253
677.60 0.8412244
677.70 0.8410228
677.80 0.840922
677.90 0.8408212
678.00 0.8406195
678.10 0.8405187
678.20 0.8404179
678.30 0.8402163
678.40 0.8401154
678.50 0.8399138
678.60 0.839813
678.70 0.8397122
678.80 0.8395105
678.90 0.8394097
679.00 0.8393089
679.10 0.8391073
679.20 0.8390065
679.30 0.8388048
679.40 0.838704
679.50 0.8386032
679.60 0.8384015
679.70 0.8383007
679.80 0.8380991
679.90 0.8379983
680.00 0.8378975
680.10 0.8376958
680.20 0.837595
680.30 0.8374942
680.40 0.8372925
680.50 0.8371917
680.60 0.8369901
680.70 0.8368893
680.80 0.8367885
680.90 0.8365868
681.00 0.836486
681.10 0.8363852
681.20 0.8361835
681.30 0.8360827
681.40 0.8358811
681.50 0.8357803
681.60 0.8356795
681.70 0.8354778
681.80 0.835377
681.90 0.8351754
682.00 0.8350746
682.10 0.8349737
682.20 0.8347721
682.30 0.8346713
682.40 0.8345705
682.50 0.8343688
682.60 0.834268
682.70 0.8340664
682.80 0.8339656
682.90 0.8338647
683.00 0.8336631
683.10 0.8335623
683.20 0.8333606
683.30 0.8332598
683.40 0.833159
683.50 0.8329574
683.60 0.8328566
683.70 0.8327557
683.80 0.8325541
683.90 0.8324533
684.00 0.8322517
684.10 0.8321508
684.20 0.83205
684.30 0.8318484
684.40 0.8317476
684.50 0.8315459
684.60 0.8314451
684.70 0.8313443
684.80 0.8311427
684.90 0.8310418
685.00 0.8308402
685.10 0.8307394
685.20 0.8306386
685.30 0.8304369
685.40 0.8303361
685.50 0.8302353
685.60 0.8300337
685.70 0.8299328
685.80 0.8297312
685.90 0.8296304
686.00 0.8295296
686.10 0.8293279
686.20 0.8292271
686.30 0.8290255
686.40 0.8289247
686.50 0.8288238
686.60 0.8286222
686.70 0.8285214
686.80 0.8284206
686.90 0.8282189
687.00 0.8281181
687.10 0.8279165
687.20 0.8278157
687.30 0.8277148
687.40 0.8275132
687.50 0.8274124
687.60 0.8272108
687.70 0.8271099
687.80 0.8270091
687.90 0.8268075
688.00 0.8267067
688.10 0.826505
688.20 0.8264042
688.30 0.8263034
688.40 0.8261018
688.50 0.8260009
688.60 0.8257993
688.70 0.8256985
688.80 0.8255977
688.90 0.825396
689.00 0.8252952
689.10 0.8250936
689.20 0.8249928
689.30 0.8248919
689.40 0.8246903
689.50 0.8245895
689.60 0.8243879
689.70 0.824287
689.80 0.8241862
689.90 0.8239846
690.00 0.8238838
690.10 0.8236821
690.20 0.8235813
690.30 0.8234805
690.40 0.8232789
690.50 0.823178
690.60 0.8229764
690.70 0.8228756
690.80 0.8227748
690.90 0.8225731
691.00 0.8224723
691.10 0.8222707
691.20 0.8221699
691.30 0.822069
691.40 0.8218674
691.50 0.8217666
691.60 0.821565
691.70 0.8214641
691.80 0.8213633
691.90 0.8211617
692.00 0.8210609
692.10 0.8208592
692.20 0.8207584
692.30 0.8206576
692.40 0.820456
692.50 0.8203551
692.60 0.8201535
692.70 0.8200527
692.80 0.8199519
692.90 0.8197502
693.00 0.8196494
693.10 0.8194478
693.20 0.819347
693.30 0.8192461
693.40 0.8190445
693.50 0.8189437
693.60 0.8188429
693.70 0.8186412
693.80 0.8185404
693.90 0.8183388
694.00 0.818238
694.10 0.8181371
694.20 0.8179355
694.30 0.8178347
694.40 0.8176331
694.50 0.8175322
694.60 0.8174314
694.70 0.8172298
694.80 0.817129
694.90 0.8169273
695.00 0.8168265
695.10 0.8167257
695.20 0.8165241
695.30 0.8164232
695.40 0.8162216
695.50 0.8161208
695.60 0.81602
695.70 0.8158183
695.80 0.8157175
695.90 0.8155159
696.00 0.8154151
696.10 0.8153142
696.20 0.8151126
696.30 0.8150118
696.40 0.8148102
696.50 0.8147093
696.60 0.8146085
696.70 0.8144069
696.80 0.8143061
696.90 0.8141044
697.00 0.8140036
697.10 0.8139028
697.20 0.8137012
697.30 0.8136003
697.40 0.8133987
697.50 0.8132979
697.60 0.8131971
697.70 0.8129954
697.80 0.8128946
697.90 0.812693
698.00 0.8125922
698.10 0.8124913
698.20 0.8122897
698.30 0.8121889
698.40 0.8119873
698.50 0.8118864
698.60 0.8117856
698.70 0.811584
698.80 0.8114832
698.90 0.8112815
699.00 0.8111807
699.10 0.8110799
699.20 0.8108783
699.30 0.8107774
699.40 0.8105758
699.50 0.810475
699.60 0.8103742
699.70 0.8101725
699.80 0.8100717
699.90 0.8098701
700.00 0.8097693
700.10 0.8096684
700.20 0.8094668
700.30 0.809366
700.40 0.8091644
700.50 0.8090635
700.60 0.8089627
700.70 0.8087611
700.80 0.8086603
700.90 0.8084586
701.00 0.8083578
701.10 0.8081562
701.20 0.8080554
701.30 0.8079545
701.40 0.8077529
701.50 0.8076521
701.60 0.8074505
701.70 0.8073496
701.80 0.8072488
701.90 0.8070472
702.00 0.8069464
702.10 0.8067447
702.20 0.8066439
702.30 0.8065431
702.40 0.8063415
702.50 0.8062406
702.60 0.806039
702.70 0.8059382
702.80 0.8058374
702.90 0.8056357
703.00 0.8055349
703.10 0.8053333
703.20 0.8052325
703.30 0.8051316
703.40 0.80493
703.50 0.8048292
703.60 0.8046276
703.70 0.8045267
703.80 0.8044259
703.90 0.8042243
704.00 0.8041235
704.10 0.8039218
704.20 0.803821
704.30 0.8037202
704.40 0.8035186
704.50 0.8034177
704.60 0.8032161
704.70 0.8031153
704.80 0.8030145
704.90 0.8028128
705.00 0.802712
705.10 0.8025104
705.20 0.8024096
705.30 0.8023087
705.40 0.8021071
705.50 0.8020063
705.60 0.8018047
705.70 0.8017038
705.80 0.801603
705.90 0.8014014
706.00 0.8013006
706.10 0.8010989
706.20 0.8009981
706.30 0.8007965
706.40 0.8006957
706.50 0.8005948
706.60 0.8003932
706.70 0.8002924
706.80 0.8000907
706.90 0.7999899
707.00 0.7998891
707.10 0.7996875
707.20 0.7995867
707.30 0.799385
707.40 0.7992842
707.50 0.7991834
707.60 0.7989817
707.70 0.7988809
707.80 0.7986793
707.90 0.7985785
708.00 0.7984777
708.10 0.798276
708.20 0.7981752
708.30 0.7979736
708.40 0.7978728
708.50 0.7977719
708.60 0.7975703
708.70 0.7974695
708.80 0.7972678
708.90 0.797167
709.00 0.7970662
709.10 0.7968646
709.20 0.7967638
709.30 0.7965621
709.40 0.7964613
709.50 0.7963605
709.60 0.7961588
709.70 0.796058
709.80 0.7958564
709.90 0.7957556
710.00 0.7956548
710.10 0.7954531
710.20 0.7953523
710.30 0.7951507
710.40 0.7950499
710.50 0.794949
710.60 0.7947474
710.70 0.7946466
710.80 0.7944449
710.90 0.7943441
711.00 0.7941425
711.10 0.7940417
711.20 0.7939409
711.30 0.7937392
711.40 0.7936384
711.50 0.7934368
711.60 0.7933359
711.70 0.7932351
711.80 0.7930335
711.90 0.7929327
712.00 0.792731
712.10 0.7926302
712.20 0.7925294
712.30 0.7923278
712.40 0.792227
712.50 0.7920253
712.60 0.7919245
712.70 0.7918237
712.80 0.791622
712.90 0.7915212
713.00 0.7913196
713.10 0.7912188
713.20 0.7910171
713.30 0.7909163
713.40 0.7908155
713.50 0.7906139
713.60 0.790513
713.70 0.7903114
713.80 0.7902106
713.90 0.7901098
714.00 0.7899081
714.10 0.7898073
714.20 0.7896057
714.30 0.7895049
714.40 0.7894041
714.50 0.7892024
714.60 0.7891016
714.70 0.7890008
714.80 0.7887991
714.90 0.7886983
715.00 0.7884967
715.10 0.7883959
715.20 0.7881942
715.30 0.7880934
715.40 0.7879926
715.50 0.787791
715.60 0.7876901
715.70 0.7874885
715.80 0.7873877
715.90 0.7872869
716.00 0.7870852
716.10 0.7869844
716.20 0.7867828
716.30 0.786682
716.40 0.7865811
716.50 0.7863795
716.60 0.7862787
716.70 0.7860771
716.80 0.7859762
716.90 0.7857746
717.00 0.7856738
717.10 0.785573
717.20 0.7853713
717.30 0.7852705
717.40 0.7850689
717.50 0.7849681
717.60 0.7848672
717.70 0.7846656
717.80 0.7845648
717.90 0.7843632
718.00 0.7842623
718.10 0.7841615
718.20 0.7839599
718.30 0.7838591
718.40 0.7836574
718.50 0.7835566
718.60 0.7834558
718.70 0.7832542
718.80 0.7831533
718.90 0.7829517
719.00 0.7828509
719.10 0.7827501
719.20 0.7825484
719.30 0.7824476
719.40 0.782246
719.50 0.7821452
719.60 0.7820443
719.70 0.7818427
719.80 0.7817419
719.90 0.7815403
720.00 0.7814394
720.10 0.7813386
720.20 0.781137
720.30 0.7810362
720.40 0.7808345
720.50 0.7807337
720.60 0.7806329
720.70 0.7804313
720.80 0.7803304
720.90 0.7801288
721.00 0.780028
721.10 0.7799272
721.20 0.7797255
721.30 0.7796247
721.40 0.7794231
721.50 0.7793223
721.60 0.7791206
721.70 0.7790198
721.80 0.778919
721.90 0.7787174
722.00 0.7786165
722.10 0.7784149
722.20 0.7783141
722.30 0.7782133
722.40 0.7780116
722.50 0.7779108
722.60 0.7777092
722.70 0.7776084
722.80 0.7775075
722.90 0.7773059
723.00 0.7772051
723.10 0.7770035
723.20 0.7769026
723.30 0.7768018
723.40 0.7766002
723.50 0.7764994
723.60 0.7762977
723.70 0.7761969
723.80 0.7760961
723.90 0.7758945
724.00 0.7757936
724.10 0.775592
724.20 0.7754912
724.30 0.7753904
724.40 0.7751887
724.50 0.7750879
724.60 0.7748863
724.70 0.7747855
724.80 0.7746846
724.90 0.774483
725.00 0.7743822
725.10 0.7741805
725.20 0.7740797
725.30 0.7739789
725.40 0.7737773
725.50 0.7736765
725.60 0.7734748
725.70 0.773374
725.80 0.7732732
725.90 0.7730716
726.00 0.7729707
726.10 0.7727691
726.20 0.7726683
726.30 0.7725675
726.40 0.7723658
726.50 0.772265
726.60 0.7720634
726.70 0.7719626
726.80 0.7717609
726.90 0.7716601
727.00 0.7715593
727.10 0.7713576
727.20 0.7712568
727.30 0.7710552
727.40 0.7709544
727.50 0.7708536
727.60 0.7706519
727.70 0.7705511
727.80 0.7703495
727.90 0.7702487
728.00 0.7701478
728.10 0.7699462
728.20 0.7698454
728.30 0.7696437
728.40 0.7695429
728.50 0.7694421
728.60 0.7692405
728.70 0.7691397
728.80 0.768938
728.90 0.7688372
729.00 0.7687364
729.10 0.7685347
729.20 0.7684339
729.30 0.7682323
729.40 0.7681315
729.50 0.7680307
729.60 0.767829
729.70 0.7677282
729.80 0.7676274
729.90 0.7674258
730.00 0.7673249
730.10 0.7671233
730.20 0.7670225
730.30 0.7668208
730.40 0.76672
730.50 0.7666192
730.60 0.7664176
730.70 0.7663168
730.80 0.7661151
730.90 0.7660143
731.00 0.7659135
731.10 0.7657118
731.20 0.765611
731.30 0.7654094
731.40 0.7653086
731.50 0.7651069
731.60 0.7650061
731.70 0.7649053
731.80 0.7647037
731.90 0.7646029
732.00 0.7644012
732.10 0.7643004
732.20 0.7641996
732.30 0.7639979
732.40 0.7638971
732.50 0.7636955
732.60 0.7635947
732.70 0.763393
732.80 0.7632922
732.90 0.7631914
733.00 0.7629898
733.10 0.7628889
733.20 0.7626873
733.30 0.7625865
733.40 0.7624857
733.50 0.762284
733.60 0.7621832
733.70 0.7619816
733.80 0.7618808
733.90 0.7617799
734.00 0.7615783
734.10 0.7614775
734.20 0.7612759
734.30 0.761175
734.40 0.7610742
734.50 0.7608726
734.60 0.7607718
734.70 0.7605701
734.80 0.7604693
734.90 0.7603685
735.00 0.7601669
735.10 0.760066
735.20 0.7598644
735.30 0.7597636
735.40 0.7596628
735.50 0.7594611
735.60 0.7593603
735.70 0.7591587
735.80 0.7590579
735.90 0.758957
736.00 0.7587554
736.10 0.7586546
736.20 0.758453
736.30 0.7583521
736.40 0.7582513
736.50 0.7580497
736.60 0.7579489
736.70 0.7577472
736.80 0.7576464
736.90 0.7575456
737.00 0.757344
737.10 0.7572431
737.20 0.7571423
737.30 0.7569407
737.40 0.7568399
737.50 0.7566382
737.60 0.7565374
737.70 0.7564366
737.80 0.756235
737.90 0.7561341
738.00 0.7559325
738.10 0.7558317
738.20 0.7557309
738.30 0.7555292
738.40 0.7554284
738.50 0.7553276
738.60 0.755126
738.70 0.7550252
738.80 0.7548235
738.90 0.7547227
739.00 0.7546219
739.10 0.7544202
739.20 0.7543194
739.30 0.7541178
739.40 0.754017
739.50 0.7539162
739.60 0.7537145
739.70 0.7536137
739.80 0.7535129
739.90 0.7533112
740.00 0.7532104
740.10 0.7530088
740.20 0.752908
740.30 0.7528072
740.40 0.7526055
740.50 0.7525047
740.60 0.7523031
740.70 0.7522023
740.80 0.7521014
740.90 0.7518998
741.00 0.751799
741.10 0.7515973
741.20 0.7514965
741.30 0.7512949
741.40 0.7511941
741.50 0.7510933
741.60 0.7508916
741.70 0.7507908
741.80 0.7505892
741.90 0.7504883
742.00 0.7503875
742.10 0.7501859
742.20 0.7500851
742.30 0.7498834
742.40 0.7497826
742.50 0.7496818
742.60 0.7494802
742.70 0.7493793
742.80 0.7491777
742.90 0.7490769
743.00 0.7489761
743.10 0.7487744
743.20 0.7486736
743.30 0.748472
743.40 0.7483712
743.50 0.7482704
743.60 0.7480687
743.70 0.7479679
743.80 0.7477663
743.90 0.7476654
744.00 0.7475646
744.10 0.747363
744.20 0.7472622
744.30 0.7470605
744.40 0.7469597
744.50 0.7468589
744.60 0.7466573
744.70 0.7465564
744.80 0.7463548
744.90 0.746254
745.00 0.7461532
745.10 0.7459515
745.20 0.7458507
745.30 0.7456491
745.40 0.7455483
745.50 0.7454475
745.60 0.7452458
745.70 0.745145
745.80 0.7449434
745.90 0.7448425
746.00 0.7447417
746.10 0.7445401
746.20 0.7444393
746.30 0.7442376
746.40 0.7441368
746.50 0.744036
746.60 0.7438344
746.70 0.7437335
746.80 0.7436327
746.90 0.7434311
747.00 0.7433303
747.10 0.7431286
747.20 0.7430278
747.30 0.742927
747.40 0.7427254
747.50 0.7426246
747.60 0.7425237
747.70 0.7423221
747.80 0.7422213
747.90 0.7420196
748.00 0.7419188
748.10 0.741818
748.20 0.7416164
748.30 0.7415156
748.40 0.7413139
748.50 0.7412131
748.60 0.7411123
748.70 0.7409106
748.80 0.7408098
748.90 0.740709
749.00 0.7405074
749.10 0.7404066
749.20 0.7402049
749.30 0.7401041
749.40 0.7400033
749.50 0.7398017
749.60 0.7397008
749.70 0.7396
749.80 0.7393984
749.90 0.7392976
750.00 0.7391967
750.10 0.7389951
750.20 0.7388943
750.30 0.7386927
750.40 0.7385918
750.50 0.7383902
750.60 0.7382894
750.70 0.7381886
750.80 0.7379869
750.90 0.7378861
751.00 0.7376845
751.10 0.7375837
751.20 0.7374828
751.30 0.7372812
751.40 0.7371804
751.50 0.7369787
751.60 0.7368779
751.70 0.7367771
751.80 0.7365755
751.90 0.7364747
752.00 0.736273
752.10 0.7361722
752.20 0.7360714
752.30 0.7358698
752.40 0.7357689
752.50 0.7356681
752.60 0.7354665
752.70 0.7353657
752.80 0.735164
752.90 0.7350632
753.00 0.7349624
753.10 0.7347608
753.20 0.7346599
753.30 0.7344583
753.40 0.7343575
753.50 0.7342567
753.60 0.734055
753.70 0.7339542
753.80 0.7337526
753.90 0.7336518
754.00 0.7335509
754.10 0.7333493
754.20 0.7332485
754.30 0.7330469
754.40 0.732946
754.50 0.7328452
754.60 0.7326436
754.70 0.7325428
754.80 0.7324419
754.90 0.7322403
755.00 0.7321395
755.10 0.7319379
755.20 0.731837
755.30 0.7317362
755.40 0.7315346
755.50 0.7314338
755.60 0.7313329
755.70 0.7311313
755.80 0.7310305
755.90 0.7308289
756.00 0.730728
756.10 0.7306272
756.20 0.7304256
756.30 0.7303248
756.40 0.730224
756.50 0.7300223
756.60 0.7299215
756.70 0.7297199
756.80 0.729619
756.90 0.7295182
757.00 0.7293166
757.10 0.7292158
757.20 0.729115
757.30 0.7289133
757.40 0.7288125
757.50 0.7286109
757.60 0.72851
757.70 0.7284092
757.80 0.7282076
757.90 0.7281068
758.00 0.728006
758.10 0.7278043
758.20 0.7277035
758.30 0.7275019
758.40 0.7274011
758.50 0.7273002
758.60 0.7270986
758.70 0.7269978
758.80 0.726897
758.90 0.7266953
759.00 0.7265945
759.10 0.7264937
759.20 0.7262921
759.30 0.7261912
759.40 0.7259896
759.50 0.7258888
759.60 0.725788
759.70 0.7255863
759.80 0.7254855
759.90 0.7253847
760.00 0.7251831
760.10 0.7250822
760.20 0.7249814
760.30 0.7247798
760.40 0.724679
760.50 0.7244773
760.60 0.7243765
760.70 0.7242757
760.80 0.7240741
760.90 0.7239732
761.00 0.7237716
761.10 0.7236708
761.20 0.72357
761.30 0.7233683
761.40 0.7232675
761.50 0.7230659
761.60 0.7229651
761.70 0.7228642
761.80 0.7226626
761.90 0.7225618
762.00 0.7223602
762.10 0.7222593
762.20 0.7221585
762.30 0.7219569
762.40 0.7218561
762.50 0.7217552
762.60 0.7215536
762.70 0.7214528
762.80 0.7212512
762.90 0.7211503
763.00 0.7210495
763.10 0.7208479
763.20 0.7207471
763.30 0.7205454
763.40 0.7204446
763.50 0.7203438
763.60 0.7201422
763.70 0.7200413
763.80 0.7199405
763.90 0.7197389
764.00 0.7196381
764.10 0.7194364
764.20 0.7193356
764.30 0.7192348
764.40 0.7190332
764.50 0.7189323
764.60 0.7188315
764.70 0.7186299
764.80 0.7185291
764.90 0.7183274
765.00 0.7182266
765.10 0.7181258
765.20 0.7179242
765.30 0.7178234
765.40 0.7177225
765.50 0.7175209
765.60 0.7174201
765.70 0.7172184
765.80 0.7171176
765.90 0.7170168
766.00 0.7168152
766.10 0.7167144
766.20 0.7166135
766.30 0.7164119
766.40 0.7163111
766.50 0.7162103
766.60 0.7160086
766.70 0.7159078
766.80 0.7157062
766.90 0.7156054
767.00 0.7155045
767.10 0.7153029
767.20 0.7152021
767.30 0.7151013
767.40 0.7148996
767.50 0.7147988
767.60 0.714698
767.70 0.7144964
767.80 0.7143955
767.90 0.7141939
768.00 0.7140931
768.10 0.7139923
768.20 0.7137906
768.30 0.7136898
768.40 0.713589
768.50 0.7133874
768.60 0.7132865
768.70 0.7131857
768.80 0.7129841
768.90 0.7128833
769.00 0.7127825
769.10 0.7125808
769.20 0.71248
769.30 0.7123792
769.40 0.7121775
769.50 0.7120767
769.60 0.7118751
769.70 0.7117743
769.80 0.7116735
769.90 0.7114718
770.00 0.711371
770.10 0.7112702
770.20 0.7110686
770.30 0.7109677
770.40 0.7108669
770.50 0.7106653
770.60 0.7105645
770.70 0.7103628
770.80 0.710262
770.90 0.7101612
771.00 0.7099596
771.10 0.7098587
771.20 0.7096571
771.30 0.7095563
771.40 0.7094555
771.50 0.7092538
771.60 0.709153
771.70 0.7090522
771.80 0.7088506
771.90 0.7087497
772.00 0.7085481
772.10 0.7084473
772.20 0.7083465
772.30 0.7081448
772.40 0.708044
772.50 0.7079432
772.60 0.7077416
772.70 0.7076407
772.80 0.7075399
772.90 0.7073383
773.00 0.7072375
773.10 0.7070358
773.20 0.706935
773.30 0.7068342
773.40 0.7066326
773.50 0.7065317
773.60 0.7064309
773.70 0.7062293
773.80 0.7061285
773.90 0.7059268
774.00 0.705826
774.10 0.7057252
774.20 0.7055236
774.30 0.7054228
774.40 0.7053219
774.50 0.7051203
774.60 0.7050195
774.70 0.7049187
774.80 0.704717
774.90 0.7046162
775.00 0.7045154
775.10 0.7043138
775.20 0.7042129
775.30 0.7040113
775.40 0.7039105
775.50 0.7038097
775.60 0.703608
775.70 0.7035072
775.80 0.7034064
775.90 0.7032048
776.00 0.7031039
776.10 0.7030031
776.20 0.7028015
776.30 0.7027007
776.40 0.7025999
776.50 0.7023982
776.60 0.7022974
776.70 0.7020958
776.80 0.7019949
776.90 0.7018941
777.00 0.7016925
777.10 0.7015917
777.20 0.7014909
777.30 0.7012892
777.40 0.7011884
777.50 0.7010876
777.60 0.7008859
777.70 0.7007851
777.80 0.7006843
777.90 0.7004827
778.00 0.7003819
778.10 0.700281
778.20 0.7000794
778.30 0.6999786
778.40 0.6998778
778.50 0.6996761
778.60 0.6995753
778.70 0.6994745
778.80 0.6992729
778.90 0.699172
779.00 0.6990712
779.10 0.6988696
779.20 0.6987688
779.30 0.6985671
779.40 0.6984663
779.50 0.6983655
779.60 0.6981639
779.70 0.698063
779.80 0.6979622
779.90 0.6977606
780.00 0.6976598
780.10 0.697559
780.20 0.6973573
780.30 0.6972565
780.40 0.6971557
780.50 0.696954
780.60 0.6968532
780.70 0.6967524
780.80 0.6965508
780.90 0.69645
781.00 0.6962483
781.10 0.6961475
781.20 0.6960467
781.30 0.6958451
781.40 0.6957442
781.50 0.6956434
781.60 0.6954418
781.70 0.695341
781.80 0.6952401
781.90 0.6950385
782.00 0.6949377
782.10 0.6948369
782.20 0.6946352
782.30 0.6945344
782.40 0.6943328
782.50 0.694232
782.60 0.6941311
782.70 0.6939295
782.80 0.6938287
782.90 0.6937279
783.00 0.6935262
783.10 0.6934254
783.20 0.6933246
783.30 0.693123
783.40 0.6930222
783.50 0.6929213
783.60 0.6927197
783.70 0.6926189
783.80 0.6924172
783.90 0.6923164
784.00 0.6922156
784.10 0.692014
784.20 0.6919132
784.30 0.6918123
784.40 0.6916107
784.50 0.6915099
784.60 0.6914091
784.70 0.6912074
784.80 0.6911066
784.90 0.6910058
785.00 0.6908042
785.10 0.6907033
785.20 0.6906025
785.30 0.6904009
785.40 0.6903001
785.50 0.6901993
785.60 0.6899976
785.70 0.6898968
785.80 0.689796
785.90 0.6895943
786.00 0.6894935
786.10 0.6893927
786.20 0.6891911
786.30 0.6890903
786.40 0.6889894
786.50 0.6887878
786.60 0.688687
786.70 0.6885862
786.80 0.6883845
786.90 0.6882837
787.00 0.6881829
787.10 0.6879813
787.20 0.6878804
787.30 0.6877796
787.40 0.687578
787.50 0.6874772
787.60 0.6873763
787.70 0.6871747
787.80 0.6870739
787.90 0.6869731
788.00 0.6867714
788.10 0.6866706
788.20 0.6865698
788.30 0.6863682
788.40 0.6862674
788.50 0.6861665
788.60 0.6859649
788.70 0.6858641
788.80 0.6857633
788.90 0.6855616
789.00 0.6854608
789.10 0.68536
789.20 0.6851584
789.30 0.6850575
789.40 0.6849567
789.50 0.6847551
789.60 0.6846543
789.70 0.6845534
789.80 0.6843518
789.90 0.684251
790.00 0.6841502
790.10 0.6839485
790.20 0.6838477
790.30 0.6837469
790.40 0.6835453
790.50 0.6834445
790.60 0.6833436
790.70 0.683142
790.80 0.6830412
790.90 0.6829404
791.00 0.6827387
791.10 0.6826379
791.20 0.6824363
791.30 0.6823355
791.40 0.6822346
791.50 0.682033
791.60 0.6819322
791.70 0.6818314
791.80 0.6816297
791.90 0.6815289
792.00 0.6814281
792.10 0.6812265
792.20 0.6811256
792.30 0.6810248
792.40 0.6808232
792.50 0.6807224
792.60 0.6806216
792.70 0.6804199
792.80 0.6803191
792.90 0.6802183
793.00 0.6800166
793.10 0.6799158
793.20 0.679815
793.30 0.6796134
793.40 0.6795126
793.50 0.6794117
793.60 0.6792101
793.70 0.6791093
793.80 0.6790085
793.90 0.6788068
794.00 0.678706
794.10 0.6786052
794.20 0.6784036
794.30 0.6783027
794.40 0.6782019
794.50 0.6780003
794.60 0.6778995
794.70 0.6777987
794.80 0.677597
794.90 0.6774962
795.00 0.6773954
795.10 0.6771937
795.20 0.6770929
795.30 0.6769921
795.40 0.6767905
795.50 0.6766897
795.60 0.6765888
795.70 0.6763872
795.80 0.6762864
795.90 0.6761856
796.00 0.6759839
796.10 0.6758831
796.20 0.6757823
796.30 0.6755807
796.40 0.6754798
796.50 0.675379
796.60 0.6751774
796.70 0.6750766
796.80 0.6749757
796.90 0.6747741
797.00 0.6746733
797.10 0.6745725
797.20 0.6743708
797.30 0.67427
797.40 0.6741692
797.50 0.6739676
797.60 0.6738668
797.70 0.6737659
797.80 0.6736651
797.90 0.6734635
798.00 0.6733627
798.10 0.6732618
798.20 0.6730602
798.30 0.6729594
798.40 0.6728586
798.50 0.6726569
798.60 0.6725561
798.70 0.6724553
798.80 0.6722537
798.90 0.6721528
799.00 0.672052
799.10 0.6718504
799.20 0.6717496
799.30 0.6716488
799.40 0.6715479
799.50 0.6713463
799.60 0.6712455
799.70 0.6711447
799.80 0.670943
799.90 0.6708422
800.00 0.6707414
800.10 0.6705398
800.20 0.6704389
800.30 0.6703381
800.40 0.6701365
800.50 0.6700357
800.60 0.6699349
800.70 0.6697332
800.80 0.6696324
800.90 0.6695316
801.00 0.6693299
801.10 0.6692291
801.20 0.6691283
801.30 0.6689267
801.40 0.6688259
801.50 0.668725
801.60 0.6685234
801.70 0.6684226
801.80 0.6683218
801.90 0.6681201
802.00 0.6680193
802.10 0.6679185
802.20 0.6677169
802.30 0.667616
802.40 0.6675152
802.50 0.6673136
802.60 0.6672128
802.70 0.667112
802.80 0.6669103
802.90 0.6668095
803.00 0.6667087
803.10 0.6666079
803.20 0.6664062
803.30 0.6663054
803.40 0.6662046
803.50 0.666003
803.60 0.6659021
803.70 0.6658013
803.80 0.6655997
803.90 0.6654989
804.00 0.6653981
804.10 0.6651964
804.20 0.6650956
804.30 0.6649948
804.40 0.6647931
804.50 0.6646923
804.60 0.6645915
804.70 0.6643899
804.80 0.6642891
804.90 0.6641882
805.00 0.6639866
805.10 0.6638858
805.20 0.663785
805.30 0.6636841
805.40 0.6634825
805.50 0.6633817
805.60 0.6632809
805.70 0.6630792
805.80 0.6629784
805.90 0.6628776
806.00 0.662676
806.10 0.6625751
806.20 0.6624743
806.30 0.6622727
806.40 0.6621719
806.50 0.6620711
806.60 0.6619702
806.70 0.6617686
806.80 0.6616678
806.90 0.661567
807.00 0.6613653
807.10 0.6612645
807.20 0.6611637
807.30 0.6609621
807.40 0.6608612
807.50 0.6607604
807.60 0.6606596
807.70 0.660458
807.80 0.6603572
807.90 0.6602563
808.00 0.6600547
808.10 0.6599539
808.20 0.6598531
808.30 0.6596514
808.40 0.6595506
808.50 0.6594498
808.60 0.659349
808.70 0.6591473
808.80 0.6590465
808.90 0.6589457
809.00 0.6587441
809.10 0.6586433
809.20 0.6585424
809.30 0.6583408
809.40 0.65824
809.50 0.6581392
809.60 0.6580383
809.70 0.6578367
809.80 0.6577359
809.90 0.6576351
810.00 0.6574334
810.10 0.6573326
810.20 0.6572318
810.30 0.6570302
810.40 0.6569293
810.50 0.6568285
810.60 0.6567277
810.70 0.6565261
810.80 0.6564253
810.90 0.6563244
811.00 0.6561228
811.10 0.656022
811.20 0.6559212
811.30 0.6557195
811.40 0.6556187
811.50 0.6555179
811.60 0.6553163
811.70 0.6552154
811.80 0.6551146
811.90 0.654913
812.00 0.6548122
812.10 0.6547114
812.20 0.6546105
812.30 0.6544089
812.40 0.6543081
812.50 0.6542073
812.60 0.6540056
812.70 0.6539048
812.80 0.653804
812.90 0.6536024
813.00 0.6535015
813.10 0.6534007
813.20 0.6532999
813.30 0.6530983
813.40 0.6529974
813.50 0.6528966
813.60 0.652695
813.70 0.6525942
813.80 0.6524934
813.90 0.6522917
814.00 0.6521909
814.10 0.6520901
814.20 0.6518885
814.30 0.6517876
814.40 0.6516868
814.50 0.651586
814.60 0.6513844
814.70 0.6512835
814.80 0.6511827
814.90 0.6509811
815.00 0.6508803
815.10 0.6507795
815.20 0.6506786
815.30 0.650477
815.40 0.6503762
815.50 0.6502754
815.60 0.6500737
815.70 0.6499729
815.80 0.6498721
815.90 0.6496705
816.00 0.6495696
816.10 0.6494688
816.20 0.649368
816.30 0.6491664
816.40 0.6490656
816.50 0.6489647
816.60 0.6487631
816.70 0.6486623
816.80 0.6485615
816.90 0.6484606
817.00 0.648259
817.10 0.6481582
817.20 0.6480574
817.30 0.6478557
817.40 0.6477549
817.50 0.6476541
817.60 0.6475533
817.70 0.6473516
817.80 0.6472508
817.90 0.64715
818.00 0.6469484
818.10 0.6468476
818.20 0.6467467
818.30 0.6466459
818.40 0.6464443
818.50 0.6463435
818.60 0.6462427
818.70 0.6461418
818.80 0.6459402
818.90 0.6458394
819.00 0.6457386
819.10 0.6455369
819.20 0.6454361
819.30 0.6453353
819.40 0.6452345
819.50 0.6450328
819.60 0.644932
819.70 0.6448312
819.80 0.6446296
819.90 0.6445287
820.00 0.6444279
820.10 0.6443271
820.20 0.6441255
820.30 0.6440247
820.40 0.6439238
820.50 0.643823
820.60 0.6436214
820.70 0.6435206
820.80 0.6434198
820.90 0.6432181
821.00 0.6431173
821.10 0.6430165
821.20 0.6429157
821.30 0.642714
821.40 0.6426132
821.50 0.6425124
821.60 0.6423108
821.70 0.6422099
821.80 0.6421091
821.90 0.6420083
822.00 0.6418067
822.10 0.6417058
822.20 0.641605
822.30 0.6414034
822.40 0.6413026
822.50 0.6412018
822.60 0.6411009
822.70 0.6408993
822.80 0.6407985
822.90 0.6406977
823.00 0.640496
823.10 0.6403952
823.20 0.6402944
823.30 0.6401936
823.40 0.6399919
823.50 0.6398911
823.60 0.6397903
823.70 0.6395887
823.80 0.6394879
823.90 0.639387
824.00 0.6392862
824.10 0.6390846
824.20 0.6389838
824.30 0.6388829
824.40 0.6386813
824.50 0.6385805
824.60 0.6384797
824.70 0.6383789
824.80 0.6381772
824.90 0.6380764
825.00 0.6379756
825.10 0.6378748
825.20 0.6376731
825.30 0.6375723
825.40 0.6374715
825.50 0.6372699
825.60 0.637169
825.70 0.6370682
825.80 0.6369674
825.90 0.6367658
826.00 0.636665
826.10 0.6365641
826.20 0.6364633
826.30 0.6362617
826.40 0.6361609
826.50 0.63606
826.60 0.6358584
826.70 0.6357576
826.80 0.6356568
826.90 0.635556
827.00 0.6353543
827.10 0.6352535
827.20 0.6351527
827.30 0.6350519
827.40 0.6348502
827.50 0.6347494
827.60 0.6346486
827.70 0.634447
827.80 0.6343461
827.90 0.6342453
828.00 0.6341445
828.10 0.6339429
828.20 0.6338421
828.30 0.6337412
828.40 0.6336404
828.50 0.6334388
828.60 0.633338
828.70 0.6332371
828.80 0.6330355
828.90 0.6329347
829.00 0.6328339
829.10 0.6327331
829.20 0.6325314
829.30 0.6324306
829.40 0.6323298
829.50 0.632229
829.60 0.6320273
829.70 0.6319265
829.80 0.6318257
829.90 0.6317249
830.00 0.6315232
830.10 0.6314224
830.20 0.6313216
830.30 0.63112
830.40 0.6310192
830.50 0.6309183
830.60 0.6308175
830.70 0.6306159
830.80 0.6305151
830.90 0.6304142
831.00 0.6303134
831.10 0.6301118
831.20 0.630011
831.30 0.6299102
831.40 0.6298093
831.50 0.6296077
831.60 0.6295069
831.70 0.6294061
831.80 0.6293052
831.90 0.6291036
832.00 0.6290028
832.10 0.628902
832.20 0.6287003
832.30 0.6285995
832.40 0.6284987
832.50 0.6283979
832.60 0.6281962
832.70 0.6280954
832.80 0.6279946
832.90 0.6278938
833.00 0.6276922
833.10 0.6275913
833.20 0.6274905
833.30 0.6273897
833.40 0.6271881
833.50 0.6270873
833.60 0.6269864
833.70 0.6268856
833.80 0.626684
833.90 0.6265832
834.00 0.6264823
834.10 0.6262807
834.20 0.6261799
834.30 0.6260791
834.40 0.6259783
834.50 0.6257766
834.60 0.6256758
834.70 0.625575
834.80 0.6254742
834.90 0.6252725
835.00 0.6251717
835.10 0.6250709
835.20 0.6249701
835.30 0.6247684
835.40 0.6246676
835.50 0.6245668
835.60 0.624466
835.70 0.6242644
835.80 0.6241635
835.90 0.6240627
836.00 0.6239619
836.10 0.6237603
836.20 0.6236594
836.30 0.6235586
836.40 0.6234578
836.50 0.6232562
836.60 0.6231554
836.70 0.6230545
836.80 0.6229537
836.90 0.6227521
837.00 0.6226513
837.10 0.6225504
837.20 0.6224496
837.30 0.622248
837.40 0.6221472
837.50 0.6220464
837.60 0.6219455
837.70 0.6217439
837.80 0.6216431
837.90 0.6215423
838.00 0.6214415
838.10 0.6212398
838.20 0.621139
838.30 0.6210382
838.40 0.6209374
838.50 0.6207357
838.60 0.6206349
838.70 0.6205341
838.80 0.6204333
838.90 0.6202316
839.00 0.6201308
839.10 0.62003
839.20 0.6199292
839.30 0.6197275
839.40 0.6196267
839.50 0.6195259
839.60 0.6194251
839.70 0.6192235
839.80 0.6191226
839.90 0.6190218
840.00 0.618921
840.10 0.6187194
840.20 0.6186186
840.30 0.6185177
840.40 0.6184169
840.50 0.6182153
840.60 0.6181145
840.70 0.6180136
840.80 0.6179128
840.90 0.6177112
841.00 0.6176104
841.10 0.6175096
841.20 0.6174087
841.30 0.6172071
841.40 0.6171063
841.50 0.6170055
841.60 0.6169046
841.70 0.616703
841.80 0.6166022
841.90 0.6165014
842.00 0.6164006
842.10 0.6161989
842.20 0.6160981
842.30 0.6159973
842.40 0.6158965
842.50 0.6156948
842.60 0.615594
842.70 0.6154932
842.80 0.6153924
842.90 0.6151907
843.00 0.6150899
843.10 0.6149891
843.20 0.6148883
843.30 0.6146867
843.40 0.6145858
843.50 0.614485
843.60 0.6143842
843.70 0.6141826
843.80 0.6140817
843.90 0.6139809
844.00 0.6138801
844.10 0.6137793
844.20 0.6135777
844.30 0.6134768
844.40 0.613376
844.50 0.6132752
844.60 0.6130736
844.70 0.6129727
844.80 0.6128719
844.90 0.6127711
845.00 0.6125695
845.10 0.6124687
845.20 0.6123678
845.30 0.612267
845.40 0.6120654
845.50 0.6119646
845.60 0.6118638
845.70 0.6117629
845.80 0.6116621
845.90 0.6114605
846.00 0.6113597
846.10 0.6112588
846.20 0.611158
846.30 0.6109564
846.40 0.6108556
846.50 0.6107548
846.60 0.6106539
846.70 0.6104523
846.80 0.6103515
846.90 0.6102507
847.00 0.6101498
847.10 0.610049
847.20 0.6098474
847.30 0.6097466
847.40 0.6096458
847.50 0.6095449
847.60 0.6093433
847.70 0.6092425
847.80 0.6091417
847.90 0.6090409
848.00 0.6088392
848.10 0.6087384
848.20 0.6086376
848.30 0.6085368
848.40 0.6083351
848.50 0.6082343
848.60 0.6081335
848.70 0.6080327
848.80 0.6079319
848.90 0.6077302
849.00 0.6076294
849.10 0.6075286
849.20 0.6074278
849.30 0.6072261
849.40 0.6071253
849.50 0.6070245
849.60 0.6069237
849.70 0.606722
849.80 0.6066212
849.90 0.6065204
850.00 0.6064196
850.10 0.6063188
850.20 0.6061171
850.30 0.6060163
850.40 0.6059155
850.50 0.6058147
850.60 0.605613
850.70 0.6055122
850.80 0.6054114
850.90 0.6053106
851.00 0.6052098
851.10 0.6050081
851.20 0.6049073
851.30 0.6048065
851.40 0.6047057
851.50 0.604504
851.60 0.6044032
851.70 0.6043024
851.80 0.6042016
851.90 0.6041008
852.00 0.6038991
852.10 0.6037983
852.20 0.6036975
852.30 0.6035967
852.40 0.603395
852.50 0.6032942
852.60 0.6031934
852.70 0.6030926
852.80 0.602891
852.90 0.6027901
853.00 0.6026893
853.10 0.6025885
853.20 0.6024877
853.30 0.6022861
853.40 0.6021852
853.50 0.6020844
853.60 0.6019836
853.70 0.601782
853.80 0.6016811
853.90 0.6015803
854.00 0.6014795
854.10 0.6013787
854.20 0.6011771
854.30 0.6010762
854.40 0.6009754
854.50 0.6008746
854.60 0.600673
854.70 0.6005721
854.80 0.6004713
854.90 0.6003705
855.00 0.6002697
855.10 0.6000681
855.20 0.5999672
855.30 0.5998664
855.40 0.5997656
855.50 0.5996648
855.60 0.5994632
855.70 0.5993623
855.80 0.5992615
855.90 0.5991607
856.00 0.5989591
856.10 0.5988582
856.20 0.5987574
856.30 0.5986566
856.40 0.5985558
856.50 0.5983542
856.60 0.5982533
856.70 0.5981525
856.80 0.5980517
856.90 0.5979509
857.00 0.5977492
857.10 0.5976484
857.20 0.5975476
857.30 0.5974468
857.40 0.597346
857.50 0.5971443
857.60 0.5970435
857.70 0.5969427
857.80 0.5968419
857.90 0.5966403
858.00 0.5965394
858.10 0.5964386
858.20 0.5963378
858.30 0.596237
858.40 0.5960353
858.50 0.5959345
858.60 0.5958337
858.70 0.5957329
858.80 0.5956321
858.90 0.5954304
859.00 0.5953296
859.10 0.5952288
859.20 0.595128
859.30 0.5949263
859.40 0.5948255
859.50 0.5947247
859.60 0.5946239
859.70 0.5945231
859.80 0.5943214
859.90 0.5942206
860.00 0.5941198
860.10 0.594019
860.20 0.5939182
860.30 0.5937165
860.40 0.5936157
860.50 0.5935149
860.60 0.5934141
860.70 0.5933133
860.80 0.5931116
860.90 0.5930108
861.00 0.59291
861.10 0.5928092
861.20 0.5927084
861.30 0.5925067
861.40 0.5924059
861.50 0.5923051
861.60 0.5922043
861.70 0.5921034
861.80 0.5919018
861.90 0.591801
862.00 0.5917002
862.10 0.5915994
862.20 0.5914985
862.30 0.5912969
862.40 0.5911961
862.50 0.5910953
862.60 0.5909944
862.70 0.5908936
862.80 0.590692
862.90 0.5905912
863.00 0.5904904
863.10 0.5903895
863.20 0.5902887
863.30 0.5900871
863.40 0.5899863
863.50 0.5898855
863.60 0.5897846
863.70 0.5896838
863.80 0.5894822
863.90 0.5893814
864.00 0.5892805
864.10 0.5891797
864.20 0.5890789
864.30 0.5888773
864.40 0.5887765
864.50 0.5886756
864.60 0.5885748
864.70 0.588474
864.80 0.5882724
864.90 0.5881715
865.00 0.5880707
865.10 0.5879699
865.20 0.5878691
865.30 0.5876675
865.40 0.5875666
865.50 0.5874658
865.60 0.587365
865.70 0.5872642
865.80 0.5870626
865.90 0.5869617
866.00 0.5868609
866.10 0.5867601
866.20 0.5866593
866.30 0.5864576
866.40 0.5863568
866.50 0.586256
866.60 0.5861552
866.70 0.5860544
866.80 0.5859536
866.90 0.5857519
867.00 0.5856511
867.10 0.5855503
867.20 0.5854495
867.30 0.5853486
867.40 0.585147
867.50 0.5850462
867.60 0.5849454
867.70 0.5848446
867.80 0.5847437
867.90 0.5845421
868.00 0.5844413
868.10 0.5843405
868.20 0.5842397
868.30 0.5841388
868.40 0.5839372
868.50 0.5838364
868.60 0.5837356
868.70 0.5836347
868.80 0.5835339
868.90 0.5833323
869.00 0.5832315
869.10 0.5831307
869.20 0.5830298
869.30 0.582929
869.40 0.5828282
869.50 0.5826266
869.60 0.5825257
869.70 0.5824249
869.80 0.5823241
869.90 0.5822233
870.00 0.5820217
870.10 0.5819208
870.20 0.58182
870.30 0.5817192
870.40 0.5816184
870.50 0.5814168
870.60 0.5813159
870.70 0.5812151
870.80 0.5811143
870.90 0.5810135
871.00 0.5809127
871.10 0.580711
871.20 0.5806102
871.30 0.5805094
871.40 0.5804086
871.50 0.5803078
871.60 0.5801061
871.70 0.5800053
871.80 0.5799045
871.90 0.5798037
872.00 0.5797028
872.10 0.579602
872.20 0.5794004
872.30 0.5792996
872.40 0.5791988
872.50 0.5790979
872.60 0.5789971
872.70 0.5787955
872.80 0.5786947
872.90 0.5785938
873.00 0.578493
873.10 0.5783922
873.20 0.5782914
873.30 0.5780898
873.40 0.5779889
873.50 0.5778881
873.60 0.5777873
873.70 0.5776865
873.80 0.5774849
873.90 0.577384
874.00 0.5772832
874.10 0.5771824
874.20 0.5770816
874.30 0.5769808
874.40 0.5767791
874.50 0.5766783
874.60 0.5765775
874.70 0.5764767
874.80 0.5763759
874.90 0.576275
875.00 0.5760734
875.10 0.5759726
875.20 0.5758718
875.30 0.5757709
875.40 0.5756701
875.50 0.5754685
875.60 0.5753677
875.70 0.5752669
875.80 0.575166
875.90 0.5750652
876.00 0.5749644
876.10 0.5747628
876.20 0.574662
876.30 0.5745611
876.40 0.5744603
876.50 0.5743595
876.60 0.5742587
876.70 0.574057
876.80 0.5739562
876.90 0.5738554
877.00 0.5737546
877.10 0.5736538
877.20 0.573553
877.30 0.5733513
877.40 0.5732505
877.50 0.5731497
877.60 0.5730489
877.70 0.572948
877.80 0.5728472
877.90 0.5726456
878.00 0.5725448
878.10 0.572444
878.20 0.5723431
878.30 0.5722423
878.40 0.5721415
878.50 0.5719399
878.60 0.5718391
878.70 0.5717382
878.80 0.5716374
878.90 0.5715366
879.00 0.5714358
879.10 0.5712341
879.20 0.5711333
879.30 0.5710325
879.40 0.5709317
879.50 0.5708309
879.60 0.5707301
879.70 0.5705284
879.80 0.5704276
879.90 0.5703268
880.00 0.570226
880.10 0.5701251
880.20 0.5700243
880.30 0.5698227
880.40 0.5697219
880.50 0.5696211
880.60 0.5695202
880.70 0.5694194
880.80 0.5693186
880.90 0.569117
881.00 0.5690162
881.10 0.5689153
881.20 0.5688145
881.30 0.5687137
881.40 0.5686129
881.50 0.5684112
881.60 0.5683104
881.70 0.5682096
881.80 0.5681088
881.90 0.568008
882.00 0.5679072
882.10 0.5678063
882.20 0.5676047
882.30 0.5675039
882.40 0.5674031
882.50 0.5673022
882.60 0.5672014
882.70 0.5671006
882.80 0.566899
882.90 0.5667982
883.00 0.5666973
883.10 0.5665965
883.20 0.5664957
883.30 0.5663949
883.40 0.5661932
883.50 0.5660924
883.60 0.5659916
883.70 0.5658908
883.80 0.56579
883.90 0.5656892
884.00 0.5654875
884.10 0.5653867
884.20 0.5652859
884.30 0.5651851
884.40 0.5650843
884.50 0.5649834
884.60 0.5648826
884.70 0.564681
884.80 0.5645802
884.90 0.5644793
885.00 0.5643785
885.10 0.5642777
885.20 0.5641769
885.30 0.5639753
885.40 0.5638744
885.50 0.5637736
885.60 0.5636728
885.70 0.563572
885.80 0.5634712
885.90 0.5633703
886.00 0.5631687
886.10 0.5630679
886.20 0.5629671
886.30 0.5628663
886.40 0.5627654
886.50 0.5626646
886.60 0.5625638
886.70 0.5623622
886.80 0.5622614
886.90 0.5621605
887.00 0.5620597
887.10 0.5619589
887.20 0.5618581
887.30 0.5616564
887.40 0.5615556
887.50 0.5614548
887.60 0.561354
887.70 0.5612532
887.80 0.5611524
887.90 0.5610515
888.00 0.5608499
888.10 0.5607491
888.20 0.5606483
888.30 0.5605474
888.40 0.5604466
888.50 0.5603458
888.60 0.560245
888.70 0.5600434
888.80 0.5599425
888.90 0.5598417
889.00 0.5597409
889.10 0.5596401
889.20 0.5595393
889.30 0.5594385
889.40 0.5592368
889.50 0.559136
889.60 0.5590352
889.70 0.5589344
889.80 0.5588335
889.90 0.5587327
890.00 0.5586319
890.10 0.5584303
890.20 0.5583295
890.30 0.5582286
890.40 0.5581278
890.50 0.558027
890.60 0.5579262
890.70 0.5578254
890.80 0.5576237
890.90 0.5575229
891.00 0.5574221
891.10 0.5573213
891.20 0.5572205
891.30 0.5571196
891.40 0.5570188
891.50 0.5568172
891.60 0.5567164
891.70 0.5566156
891.80 0.5565147
891.90 0.5564139
892.00 0.5563131
892.10 0.5562123
892.20 0.5560106
892.30 0.5559098
892.40 0.555809
892.50 0.5557082
892.60 0.5556074
892.70 0.5555066
892.80 0.5554057
892.90 0.5552041
893.00 0.5551033
893.10 0.5550025
893.20 0.5549016
893.30 0.5548008
893.40 0.5547
893.50 0.5545992
893.60 0.5543976
893.70 0.5542967
893.80 0.5541959
893.90 0.5540951
894.00 0.5539943
894.10 0.5538935
894.20 0.5537926
894.30 0.5536918
894.40 0.5534902
894.50 0.5533894
894.60 0.5532886
894.70 0.5531877
894.80 0.5530869
894.90 0.5529861
895.00 0.5528853
895.10 0.5526837
895.20 0.5525828
895.30 0.552482
895.40 0.5523812
895.50 0.5522804
895.60 0.5521796
895.70 0.5520787
895.80 0.5519779
895.90 0.5517763
896.00 0.5516755
896.10 0.5515747
896.20 0.5514738
896.30 0.551373
896.40 0.5512722
896.50 0.5511714
896.60 0.5510706
896.70 0.5508689
896.80 0.5507681
896.90 0.5506673
897.00 0.5505665
897.10 0.5504657
897.20 0.5503648
897.30 0.550264
897.40 0.5500624
897.50 0.5499616
897.60 0.5498608
897.70 0.5497599
897.80 0.5496591
897.90 0.5495583
898.00 0.5494575
898.10 0.5493567
898.20 0.549155
898.30 0.5490542
898.40 0.5489534
898.50 0.5488526
898.60 0.5487518
898.70 0.5486509
898.80 0.5485501
898.90 0.5484493
899.00 0.5482477
899.10 0.5481468
899.20 0.548046
899.30 0.5479452
899.40 0.5478444
899.50 0.5477436
899.60 0.5476428
899.70 0.5475419
899.80 0.5473403
899.90 0.5472395
900.00 0.5471387
900.10 0.5470379
900.20 0.546937
900.30 0.5468362
900.40 0.5467354
900.50 0.5466346
900.60 0.5464329
900.70 0.5463321
900.80 0.5462313
900.90 0.5461305
901.00 0.5460297
901.10 0.5459289
901.20 0.545828
901.30 0.5457272
901.40 0.5456264
901.50 0.5454248
901.60 0.5453239
901.70 0.5452231
901.80 0.5451223
901.90 0.5450215
902.00 0.5449207
902.10 0.5448199
902.20 0.544719
902.30 0.5446182
902.40 0.5444166
902.50 0.5443158
902.60 0.544215
902.70 0.5441141
902.80 0.5440133
902.90 0.5439125
903.00 0.5438117
903.10 0.5437109
903.20 0.5435092
903.30 0.5434084
903.40 0.5433076
903.50 0.5432068
903.60 0.543106
903.70 0.5430051
903.80 0.5429043
903.90 0.5428035
904.00 0.5427027
904.10 0.542501
904.20 0.5424002
904.30 0.5422994
904.40 0.5421986
904.50 0.5420978
904.60 0.541997
904.70 0.5418961
904.80 0.5417953
904.90 0.5415937
905.00 0.5414929
905.10 0.541392
905.20 0.5412912
905.30 0.5411904
905.40 0.5410896
905.50 0.5409888
905.60 0.540888
905.70 0.5407871
905.80 0.5406863
905.90 0.5404847
906.00 0.5403839
906.10 0.5402831
906.20 0.5401822
906.30 0.5400814
906.40 0.5399806
906.50 0.5398798
906.60 0.539779
906.70 0.5396781
906.80 0.5394765
906.90 0.5393757
907.00 0.5392749
907.10 0.5391741
907.20 0.5390732
907.30 0.5389724
907.40 0.5388716
907.50 0.5387708
907.60 0.53867
907.70 0.5384683
907.80 0.5383675
907.90 0.5382667
908.00 0.5381659
908.10 0.5380651
908.20 0.5379642
908.30 0.5378634
908.40 0.5377626
908.50 0.5376618
908.60 0.537561
908.70 0.5373593
908.80 0.5372585
908.90 0.5371577
909.00 0.5370569
909.10 0.5369561
909.20 0.5368552
909.30 0.5367544
909.40 0.5366536
909.50 0.5365528
909.60 0.5363512
909.70 0.5362503
909.80 0.5361495
909.90 0.5360487
910.00 0.5359479
910.10 0.5358471
910.20 0.5357462
910.30 0.5356454
910.40 0.5355446
910.50 0.5354438
910.60 0.535343
910.70 0.5351413
910.80 0.5350405
910.90 0.5349397
911.00 0.5348389
911.10 0.5347381
911.20 0.5346373
911.30 0.5345364
911.40 0.5344356
911.50 0.5343348
911.60 0.534234
911.70 0.5340323
911.80 0.5339315
911.90 0.5338307
912.00 0.5337299
912.10 0.5336291
912.20 0.5335283
912.30 0.5334274
912.40 0.5333266
912.50 0.5332258
912.60 0.533125
912.70 0.5329233
912.80 0.5328225
912.90 0.5327217
913.00 0.5326209
913.10 0.5325201
913.20 0.5324193
913.30 0.5323184
913.40 0.5322176
913.50 0.5321168
913.60 0.532016
913.70 0.5319152
913.80 0.5317135
913.90 0.5316127
914.00 0.5315119
914.10 0.5314111
914.20 0.5313103
914.30 0.5312094
914.40 0.5311086
914.50 0.5310078
914.60 0.530907
914.70 0.5308062
914.80 0.5307054
914.90 0.5305037
915.00 0.5304029
915.10 0.5303021
915.20 0.5302013
915.30 0.5301004
915.40 0.5299996
915.50 0.5298988
915.60 0.529798
915.70 0.5296972
915.80 0.5295964
915.90 0.5294955
916.00 0.5292939
916.10 0.5291931
916.20 0.5290923
916.30 0.5289914
916.40 0.5288906
916.50 0.5287898
916.60 0.528689
916.70 0.5285882
916.80 0.5284874
916.90 0.5283865
917.00 0.5282857
917.10 0.5281849
917.20 0.5279833
917.30 0.5278825
917.40 0.5277816
917.50 0.5276808
917.60 0.52758
917.70 0.5274792
917.80 0.5273784
917.90 0.5272775
918.00 0.5271767
918.10 0.5270759
918.20 0.5269751
918.30 0.5267735
918.40 0.5266726
918.50 0.5265718
918.60 0.526471
918.70 0.5263702
918.80 0.5262694
918.90 0.5261685
919.00 0.5260677
919.10 0.5259669
919.20 0.5258661
919.30 0.5257653
919.40 0.5256645
919.50 0.5254628
919.60 0.525362
919.70 0.5252612
919.80 0.5251604
919.90 0.5250596
920.00 0.5249587
920.10 0.5248579
920.20 0.5247571
920.30 0.5246563
920.40 0.5245555
920.50 0.5244546
920.60 0.5243538
920.70 0.524253
920.80 0.5240514
920.90 0.5239506
921.00 0.5238497
921.10 0.5237489
921.20 0.5236481
921.30 0.5235473
921.40 0.5234465
921.50 0.5233456
921.60 0.5232448
921.70 0.523144
921.80 0.5230432
921.90 0.5229424
922.00 0.5228416
922.10 0.5226399
922.20 0.5225391
922.30 0.5224383
922.40 0.5223375
922.50 0.5222367
922.60 0.5221358
922.70 0.522035
922.80 0.5219342
922.90 0.5218334
923.00 0.5217326
923.10 0.5216317
923.20 0.5215309
923.30 0.5214301
923.40 0.5213293
923.50 0.5211277
923.60 0.5210268
923.70 0.520926
923.80 0.5208252
923.90 0.5207244
924.00 0.5206236
924.10 0.5205227
924.20 0.5204219
924.30 0.5203211
924.40 0.5202203
924.50 0.5201195
924.60 0.5200187
924.70 0.5199178
924.80 0.519817
924.90 0.5196154
925.00 0.5195146
925.10 0.5194138
925.20 0.5193129
925.30 0.5192121
925.40 0.5191113
925.50 0.5190105
925.60 0.5189097
925.70 0.5188088
925.80 0.518708
925.90 0.5186072
926.00 0.5185064
926.10 0.5184056
926.20 0.5183048
926.30 0.5182039
926.40 0.5181031
926.50 0.5180023
926.60 0.5178007
926.70 0.5176998
926.80 0.517599
926.90 0.5174982
927.00 0.5173974
927.10 0.5172966
927.20 0.5171958
927.30 0.5170949
927.40 0.5169941
927.50 0.5168933
927.60 0.5167925
927.70 0.5166917
927.80 0.5165908
927.90 0.51649
928.00 0.5163892
928.10 0.5161876
928.20 0.5160868
928.30 0.5159859
928.40 0.5158851
928.50 0.5157843
928.60 0.5156835
928.70 0.5155827
928.80 0.5154819
928.90 0.515381
929.00 0.5152802
929.10 0.5151794
929.20 0.5150786
929.30 0.5149778
929.40 0.5148769
929.50 0.5147761
929.60 0.5146753
929.70 0.5145745
929.80 0.5143729
929.90 0.514272
930.00 0.5141712
930.10 0.5140704
930.20 0.5139696
930.30 0.5138688
930.40 0.5137679
930.50 0.5136671
930.60 0.5135663
930.70 0.5134655
930.80 0.5133647
930.90 0.5132639
931.00 0.513163
931.10 0.5130622
931.20 0.5129614
931.30 0.5128606
931.40 0.5127598
931.50 0.512659
931.60 0.5124573
931.70 0.5123565
931.80 0.5122557
931.90 0.5121549
932.00 0.512054
932.10 0.5119532
932.20 0.5118524
932.30 0.5117516
932.40 0.5116508
932.50 0.51155
932.60 0.5114491
932.70 0.5113483
932.80 0.5112475
932.90 0.5111467
933.00 0.5110459
933.10 0.510945
933.20 0.5108442
933.30 0.5107434
933.40 0.5106426
933.50 0.510441
933.60 0.5103401
933.70 0.5102393
933.80 0.5101385
933.90 0.5100377
934.00 0.5099369
934.10 0.5098361
934.20 0.5097352
934.30 0.5096344
934.40 0.5095336
934.50 0.5094328
934.60 0.509332
934.70 0.5092311
934.80 0.5091303
934.90 0.5090295
935.00 0.5089287
935.10 0.5088279
935.20 0.5087271
935.30 0.5086262
935.40 0.5085254
935.50 0.5084246
935.60 0.508223
935.70 0.5081221
935.80 0.5080213
935.90 0.5079205
936.00 0.5078197
936.10 0.5077189
936.20 0.5076181
936.30 0.5075172
936.40 0.5074164
936.50 0.5073156
936.60 0.5072148
936.70 0.507114
936.80 0.5070132
936.90 0.5069123
937.00 0.5068115
937.10 0.5067107
937.20 0.5066099
937.30 0.5065091
937.40 0.5064082
937.50 0.5063074
937.60 0.5062066
937.70 0.5061058
937.80 0.506005
937.90 0.5059042
938.00 0.5057025
938.10 0.5056017
938.20 0.5055009
938.30 0.5054001
938.40 0.5052992
938.50 0.5051984
938.60 0.5050976
938.70 0.5049968
938.80 0.504896
938.90 0.5047952
939.00 0.5046943
939.10 0.5045935
939.20 0.5044927
939.30 0.5043919
939.40 0.5042911
939.50 0.5041902
939.60 0.5040894
939.70 0.5039886
939.80 0.5038878
939.90 0.503787
940.00 0.5036862
940.10 0.5035853
940.20 0.5034845
940.30 0.5033837
940.40 0.5032829
940.50 0.5031821
940.60 0.5029804
940.70 0.5028796
940.80 0.5027788
940.90 0.502678
941.00 0.5025772
941.10 0.5024763
941.20 0.5023755
941.30 0.5022747
941.40 0.5021739
941.50 0.5020731
941.60 0.5019723
941.70 0.5018714
941.80 0.5017706
941.90 0.5016698
942.00 0.501569
942.10 0.5014682
942.20 0.5013673
942.30 0.5012665
942.40 0.5011657
942.50 0.5010649
942.60 0.5009641
942.70 0.5008633
942.80 0.5007624
942.90 0.5006616
943.00 0.5005608
943.10 0.50046
943.20 0.5003592
943.30 0.5002584
943.40 0.5001575
943.50 0.5000567
943.60 0.4999559
943.70 0.4998551
943.80 0.4997543
943.90 0.4995526
944.00 0.4994518
944.10 0.499351
944.20 0.4992502
944.30 0.4991494
944.40 0.4990485
944.50 0.4989477
944.60 0.4988469
944.70 0.4987461
944.80 0.4986453
944.90 0.4985444
945.00 0.4984436
945.10 0.4983428
945.20 0.498242
945.30 0.4981412
945.40 0.4980404
945.50 0.4979395
945.60 0.4978387
945.70 0.4977379
945.80 0.4976371
945.90 0.4975363
946.00 0.4974355
946.10 0.4973346
946.20 0.4972338
946.30 0.497133
946.40 0.4970322
946.50 0.4969314
946.60 0.4968305
946.70 0.4967297
946.80 0.4966289
946.90 0.4965281
947.00 0.4964273
947.10 0.4963265
947.20 0.4962256
947.30 0.4961248
947.40 0.496024
947.50 0.4959232
947.60 0.4958224
947.70 0.4957215
947.80 0.4956207
947.90 0.4955199
948.00 0.4954191
948.10 0.4953183
948.20 0.4951166
948.30 0.4950158
948.40 0.494915
948.50 0.4948142
948.60 0.4947134
948.70 0.4946126
948.80 0.4945117
948.90 0.4944109
949.00 0.4943101
949.10 0.4942093
949.20 0.4941085
949.30 0.4940076
949.40 0.4939068
949.50 0.493806
949.60 0.4937052
949.70 0.4936044
949.80 0.4935036
949.90 0.4934027
950.00 0.4933019
950.10 0.4932011
950.20 0.4931003
950.30 0.4929995
950.40 0.4928986
950.50 0.4927978
950.60 0.492697
950.70 0.4925962
950.80 0.4924954
950.90 0.4923946
951.00 0.4922937
951.10 0.4921929
951.20 0.4920921
951.30 0.4919913
951.40 0.4918905
951.50 0.4917896
951.60 0.4916888
951.70 0.491588
951.80 0.4914872
951.90 0.4913864
952.00 0.4912856
952.10 0.4911847
952.20 0.4910839
952.30 0.4909831
952.40 0.4908823
952.50 0.4907815
952.60 0.4906807
952.70 0.4905798
952.80 0.490479
952.90 0.4903782
953.00 0.4902774
953.10 0.4901766
953.20 0.4900757
953.30 0.4899749
953.40 0.4898741
953.50 0.4897733
953.60 0.4895717
953.70 0.4894708
953.80 0.48937
953.90 0.4892692
954.00 0.4891684
954.10 0.4889667
954.20 0.4888659
954.30 0.4887651
954.40 0.4886643
954.50 0.4885635
954.60 0.4885635
954.70 0.4884627
954.80 0.4883618
954.90 0.488261
955.00 0.4881602
955.10 0.4880594
955.20 0.4879586
955.30 0.4879586
955.40 0.4878578
955.50 0.4877569
955.60 0.4876561
955.70 0.4875553
955.80 0.4874545
955.90 0.4873537
956.00 0.4872528
956.10 0.487152
956.20 0.4870512
956.30 0.4869504
956.40 0.4868496
956.50 0.4867488
956.60 0.4866479
956.70 0.4865471
956.80 0.4864463
956.90 0.4863455
957.00 0.4862447
957.10 0.4861438
957.20 0.486043
957.30 0.4859422
957.40 0.4858414
957.50 0.4857406
957.60 0.4856398
957.70 0.4855389
957.80 0.4854381
957.90 0.4853373
958.00 0.4852365
958.10 0.4851357
958.20 0.4850349
958.30 0.484934
958.40 0.4848332
958.50 0.4847324
958.60 0.4846316
958.70 0.4845308
958.80 0.4844299
958.90 0.4843291
959.00 0.4842283
959.10 0.4841275
959.20 0.4840267
959.30 0.4839259
959.40 0.483825
959.50 0.4837242
959.60 0.4836234
959.70 0.4835226
959.80 0.4834218
959.90 0.4833209
960.00 0.4832201
960.10 0.4831193
960.20 0.4830185
960.30 0.4829177
960.40 0.4828169
960.50 0.482716
960.60 0.4826152
960.70 0.4825144
960.80 0.4824136
960.90 0.4823128
961.00 0.482212
961.10 0.4821111
961.20 0.4820103
961.30 0.4819095
961.40 0.4818087
961.50 0.4817079
961.60 0.481607
961.70 0.4815062
961.80 0.4814054
961.90 0.4813046
962.00 0.4812038
962.10 0.481103
962.20 0.4810021
962.30 0.4809013
962.40 0.4808005
962.50 0.4806997
962.60 0.4805989
962.70 0.480498
962.80 0.4803972
962.90 0.4802964
963.00 0.4801956
963.10 0.4800948
963.20 0.479994
963.30 0.4798931
963.40 0.4797923
963.50 0.4796915
963.60 0.4795907
963.70 0.4794899
963.80 0.479389
963.90 0.4792882
964.00 0.4791874
964.10 0.4790866
964.20 0.4789858
964.30 0.478885
964.40 0.4787841
964.50 0.4786833
964.60 0.4785825
964.70 0.4784817
964.80 0.4783809
964.90 0.4782801
965.00 0.4781792
965.10 0.4780784
965.20 0.4779776
965.30 0.4778768
965.40 0.477776
965.50 0.4776751
965.60 0.4776751
965.70 0.4775743
965.80 0.4774735
965.90 0.4773727
966.00 0.4772719
966.10 0.4771711
966.20 0.4770702
966.30 0.4769694
966.40 0.4768686
966.50 0.4767678
966.60 0.476667
966.70 0.4765661
966.80 0.4764653
966.90 0.4763645
967.00 0.4762637
967.10 0.4761629
967.20 0.4760621
967.30 0.4759612
967.40 0.4758604
967.50 0.4757596
967.60 0.4756588
967.70 0.475558
967.80 0.4754572
967.90 0.4753563
968.00 0.4752555
968.10 0.4751547
968.20 0.4750539
968.30 0.4749531
968.40 0.4748522
968.50 0.4747514
968.60 0.4746506
968.70 0.4745498
968.80 0.474449
968.90 0.4743482
969.00 0.4742473
969.10 0.4741465
969.20 0.4740457
969.30 0.4739449
969.40 0.4738441
969.50 0.4737432
969.60 0.4736424
969.70 0.4735416
969.80 0.4734408
969.90 0.47334
970.00 0.47334
970.10 0.4732392
970.20 0.4731383
970.30 0.4730375
970.40 0.4729367
970.50 0.4728359
970.60 0.4727351
970.70 0.4726343
970.80 0.4725334
970.90 0.4724326
971.00 0.4723318
971.10 0.472231
971.20 0.4721302
971.30 0.4720293
971.40 0.4719285
971.50 0.4718277
971.60 0.4717269
971.70 0.4716261
971.80 0.4715253
971.90 0.4714244
972.00 0.4713236
972.10 0.4712228
972.20 0.471122
972.30 0.4710212
972.40 0.4709203
972.50 0.4708195
972.60 0.4707187
972.70 0.4706179
972.80 0.4705171
972.90 0.4704163
973.00 0.4703154
973.10 0.4702146
973.20 0.4702146
973.30 0.4701138
973.40 0.470013
973.50 0.4699122
973.60 0.4698114
973.70 0.4697105
973.80 0.4696097
973.90 0.4695089
974.00 0.4694081
974.10 0.4693073
974.20 0.4692064
974.30 0.4691056
974.40 0.4690048
974.50 0.468904
974.60 0.4688032
974.70 0.4687024
974.80 0.4686015
974.90 0.4685007
975.00 0.4683999
975.10 0.4682991
975.20 0.4681983
975.30 0.4680974
975.40 0.4679966
975.50 0.4678958
975.60 0.467795
975.70 0.4676942
975.80 0.4675934
975.90 0.4675934
976.00 0.4674925
976.10 0.4673917
976.20 0.4672909
976.30 0.4671901
976.40 0.4670893
976.50 0.4669884
976.60 0.4668876
976.70 0.4667868
976.80 0.466686
976.90 0.4665852
977.00 0.4664844
977.10 0.4663835
977.20 0.4662827
977.30 0.4661819
977.40 0.4660811
977.50 0.4659803
977.60 0.4658795
977.70 0.4657786
977.80 0.4656778
977.90 0.465577
978.00 0.4654762
978.10 0.4653754
978.20 0.4652745
978.30 0.4652745
978.40 0.4651737
978.50 0.4650729
978.60 0.4649721
978.70 0.4648713
978.80 0.4647705
978.90 0.4646696
979.00 0.4645688
979.10 0.464468
979.20 0.4643672
979.30 0.4642664
979.40 0.4641655
979.50 0.4640647
979.60 0.4639639
979.70 0.4638631
979.80 0.4637623
979.90 0.4636615
980.00 0.4635606
980.10 0.4634598
980.20 0.463359
980.30 0.4632582
980.40 0.4632582
980.50 0.4631574
980.60 0.4630566
980.70 0.4629557
980.80 0.4628549
980.90 0.4627541
981.00 0.4626533
981.10 0.4625525
981.20 0.4624516
981.30 0.4623508
981.40 0.46225
981.50 0.4621492
981.60 0.4620484
981.70 0.4619476
981.80 0.4618467
981.90 0.4617459
982.00 0.4616451
982.10 0.4615443
982.20 0.4614435
982.30 0.4614435
982.40 0.4613426
982.50 0.4612418
982.60 0.461141
982.70 0.4610402
982.80 0.4609394
982.90 0.4608386
983.00 0.4607377
983.10 0.4606369
983.20 0.4605361
983.30 0.4604353
983.40 0.4603345
983.50 0.4602337
983.60 0.4601328
983.70 0.460032
983.80 0.4599312
983.90 0.4598304
984.00 0.4597296
984.10 0.4597296
984.20 0.4596287
984.30 0.4595279
984.40 0.4594271
984.50 0.4593263
984.60 0.4592255
984.70 0.4591247
984.80 0.4590238
984.90 0.458923
985.00 0.4588222
985.10 0.4587214
985.20 0.4586206
985.30 0.4585197
985.40 0.4584189
985.50 0.4583181
985.60 0.4582173
985.70 0.4581165
985.80 0.4580157
985.90 0.4580157
986.00 0.4579148
986.10 0.457814
986.20 0.4577132
986.30 0.4576124
986.40 0.4575116
986.50 0.4574108
986.60 0.4573099
986.70 0.4572091
986.80 0.4571083
986.90 0.4570075
987.00 0.4569067
987.10 0.4568058
987.20 0.456705
987.30 0.4566042
987.40 0.4565034
987.50 0.4565034
987.60 0.4564026
987.70 0.4563018
987.80 0.4562009
987.90 0.4561001
988.00 0.4559993
988.10 0.4558985
988.20 0.4557977
988.30 0.4556968
988.40 0.455596
988.50 0.4554952
988.60 0.4553944
988.70 0.4552936
988.80 0.4551928
988.90 0.4550919
989.00 0.4550919
989.10 0.4549911
989.20 0.4548903
989.30 0.4547895
989.40 0.4546887
989.50 0.4545878
989.60 0.454487
989.70 0.4543862
989.80 0.4542854
989.90 0.4541846
990.00 0.4540838
990.10 0.4539829
990.20 0.4538821
990.30 0.4537813
990.40 0.4536805
990.50 0.4536805
990.60 0.4535797
990.70 0.4534789
990.80 0.453378
990.90 0.4532772
991.00 0.4531764
991.10 0.4530756
991.20 0.4529748
991.30 0.4528739
991.40 0.4527731
991.50 0.4526723
991.60 0.4525715
991.70 0.4524707
991.80 0.4523699
991.90 0.4523699
992.00 0.452269
992.10 0.4521682
992.20 0.4520674
992.30 0.4519666
992.40 0.4518658
992.50 0.4517649
992.60 0.4516641
992.70 0.4515633
992.80 0.4514625
992.90 0.4513617
993.00 0.4512609
993.10 0.45116
993.20 0.45116
993.30 0.4510592
993.40 0.4509584
993.50 0.4508576
993.60 0.4507568
993.70 0.450656
993.80 0.4505551
993.90 0.4504543
994.00 0.4503535
994.10 0.4502527
994.20 0.4501519
994.30 0.450051
994.40 0.4499502
994.50 0.4499502
994.60 0.4498494
994.70 0.4497486
994.80 0.4496478
994.90 0.449547
995.00 0.4494461
995.10 0.4493453
995.20 0.4492445
995.30 0.4491437
995.40 0.4490429
995.50 0.448942
995.60 0.4488412
995.70 0.4488412
995.80 0.4487404
995.90 0.4486396
996.00 0.4485388
996.10 0.448438
996.20 0.4483371
996.30 0.4482363
996.40 0.4481355
996.50 0.4480347
996.60 0.4479339
996.70 0.4478331
996.80 0.4477322
996.90 0.4476314
997.00 0.4476314
997.10 0.4475306
997.20 0.4474298
997.30 0.447329
997.40 0.4472281
997.50 0.4471273
997.60 0.4470265
997.70 0.4469257
997.80 0.4468249
997.90 0.4467241
998.00 0.4466232
998.10 0.4465224
998.20 0.4465224
998.30 0.4464216
998.40 0.4463208
998.50 0.44622
998.60 0.4461191
998.70 0.4460183
998.80 0.4459175
998.90 0.4458167
999.00 0.4457159
999.10 0.4456151
999.20 0.4455142
999.30 0.4455142
999.40 0.4454134
999.50 0.4453126
999.60 0.4452118
999.70 0.445111
999.80 0.4450102
999.90 0.4449093
1000.00 0.4448085
1000.10 0.4447077
1000.20 0.4446069
1000.30 0.4445061
1000.40 0.4445061
1000.50 0.4444052
1000.60 0.4443044
1000.70 0.4442036
1000.80 0.4441028
1000.90 0.444002
1001.00 0.4439012
1001.10 0.4438003
1001.20 0.4436995
1001.30 0.4435987
1001.40 0.4434979
1001.50 0.4434979
1001.60 0.4433971
1001.70 0.4432962
1001.80 0.4431954
1001.90 0.4430946
1002.00 0.4429938
1002.10 0.442893
1002.20 0.4427922
1002.30 0.4426913
1002.40 0.4425905
1002.50 0.4424897
1002.60 0.4423889
1002.70 0.4422881
1002.80 0.4422881
1002.90 0.4421872
1003.00 0.4420864
1003.10 0.4419856
1003.20 0.4418848
1003.30 0.441784
1003.40 0.4416832
1003.50 0.4415823
1003.60 0.4414815
1003.70 0.4413807
1003.80 0.4412799
1003.90 0.4411791
1004.00 0.4409774
1004.10 0.4408766
1004.20 0.4407758
1004.30 0.4405742
1004.40 0.4403725
1004.50 0.4401709
1004.60 0.4399693
1004.70 0.4399693
1004.80 0.4399693
1004.90 0.4399693
1005.00 0.4399693
1005.10 0.4399693
1005.20 0.4398684
1005.30 0.4398684
1005.40 0.4397676
1005.50 0.4397676
1005.60 0.4396668
1005.70 0.439566
1005.80 0.4394652
1005.90 0.4393643
1006.00 0.4393643
1006.10 0.4392635
1006.20 0.4391627
1006.30 0.4390619
1006.40 0.4389611
1006.50 0.4388603
1006.60 0.4387594
1006.70 0.4386586
1006.80 0.4386586
1006.90 0.4385578
1007.00 0.438457
1007.10 0.4383562
1007.20 0.4382554
1007.30 0.4381545
1007.40 0.4380537
1007.50 0.4379529
1007.60 0.4378521
1007.70 0.4378521
1007.80 0.4377513
1007.90 0.4376504
1008.00 0.4375496
1008.10 0.4374488
1008.20 0.437348
1008.30 0.4372472
1008.40 0.4371464
1008.50 0.4370455
1008.60 0.4370455
1008.70 0.4369447
1008.80 0.4368439
1008.90 0.4367431
1009.00 0.4366423
1009.10 0.4365414
1009.20 0.4364406
1009.30 0.4363398
1009.40 0.436239
1009.50 0.436239
1009.60 0.4361382
1009.70 0.4360374
1009.80 0.4359365
1009.90 0.4358357
1010.00 0.4357349
1010.10 0.4356341
1010.20 0.4355333
1010.30 0.4354325
1010.40 0.4354325
1010.50 0.4353316
1010.60 0.4352308
1010.70 0.43513
1010.80 0.4350292
1010.90 0.4349284
1011.00 0.4348275
1011.10 0.4347267
1011.20 0.4346259
1011.30 0.4346259
1011.40 0.4345251
1011.50 0.4344243
1011.60 0.4343235
1011.70 0.4342226
1011.80 0.4341218
1011.90 0.434021
1012.00 0.4339202
1012.10 0.4338194
1012.20 0.4338194
1012.30 0.4337185
1012.40 0.4336177
1012.50 0.4335169
1012.60 0.4334161
1012.70 0.4333153
1012.80 0.4332145
1012.90 0.4331136
1013.00 0.4330128
1013.10 0.4330128
1013.20 0.432912
1013.30 0.4328112
1013.40 0.4327104
1013.50 0.4326096
1013.60 0.4325087
1013.70 0.4324079
1013.80 0.4323071
1013.90 0.4323071
1014.00 0.4322063
1014.10 0.4321055
1014.20 0.4320046
1014.30 0.4319038
1014.40 0.431803
1014.50 0.4317022
1014.60 0.4316014
1014.70 0.4315006
1014.80 0.4315006
1014.90 0.4313997
1015.00 0.4312989
1015.10 0.4311981
1015.20 0.4310973
1015.30 0.4309965
1015.40 0.4308956
1015.50 0.4307948
1015.60 0.4307948
1015.70 0.430694
1015.80 0.4305932
1015.90 0.4304924
1016.00 0.4303916
1016.10 0.4302907
1016.20 0.4301899
1016.30 0.4300891
1016.40 0.4300891
1016.50 0.4299883
1016.60 0.4298875
1016.70 0.4297866
1016.80 0.4296858
1016.90 0.429585
1017.00 0.4294842
1017.10 0.4293834
1017.20 0.4292826
1017.30 0.4292826
1017.40 0.4291817
1017.50 0.4290809
1017.60 0.4289801
1017.70 0.4288793
1017.80 0.4287785
1017.90 0.4286777
1018.00 0.4285768
1018.10 0.4285768
1018.20 0.428476
1018.30 0.4283752
1018.40 0.4282744
1018.50 0.4281736
1018.60 0.4280727
1018.70 0.4279719
1018.80 0.4278711
1018.90 0.4278711
1019.00 0.4277703
1019.10 0.4276695
1019.20 0.4275687
1019.30 0.4274678
1019.40 0.427367
1019.50 0.4272662
1019.60 0.4271654
1019.70 0.4271654
1019.80 0.4270646
1019.90 0.4269637
1020.00 0.4268629
1020.10 0.4267621
1020.20 0.4266613
1020.30 0.4265605
1020.40 0.4265605
1020.50 0.4264597
1020.60 0.4263588
1020.70 0.426258
1020.80 0.4261572
1020.90 0.4260564
1021.00 0.4259556
1021.10 0.4258548
1021.20 0.4258548
1021.30 0.4257539
1021.40 0.4256531
1021.50 0.4255523
1021.60 0.4254515
1021.70 0.4253507
1021.80 0.4252498
1021.90 0.4252498
1022.00 0.425149
1022.10 0.4250482
1022.20 0.4249474
1022.30 0.4248466
1022.40 0.4247458
1022.50 0.4246449
1022.60 0.4245441
1022.70 0.4245441
1022.80 0.4244433
1022.90 0.4243425
1023.00 0.4242417
1023.10 0.4241408
1023.20 0.42404
1023.30 0.4239392
1023.40 0.4239392
1023.50 0.4238384
1023.60 0.4237376
1023.70 0.4236368
1023.80 0.4235359
1023.90 0.4234351
1024.00 0.4233343
1024.10 0.4232335
1024.20 0.4232335
1024.30 0.4231327
1024.40 0.4230319
1024.50 0.422931
1024.60 0.4228302
1024.70 0.4227294
1024.80 0.4226286
1024.90 0.4226286
1025.00 0.4225278
1025.10 0.4224269
1025.20 0.4223261
1025.30 0.4222253
1025.40 0.4221245
1025.50 0.4220237
1025.60 0.4220237
1025.70 0.4219229
1025.80 0.421822
1025.90 0.4217212
1026.00 0.4216204
1026.10 0.4215196
1026.20 0.4214188
1026.30 0.4214188
1026.40 0.4213179
1026.50 0.4212171
1026.60 0.4211163
1026.70 0.4210155
1026.80 0.4209147
1026.90 0.4208139
1027.00 0.4208139
1027.10 0.420713
1027.20 0.4206122
1027.30 0.4205114
1027.40 0.4204106
1027.50 0.4203098
1027.60 0.420209
1027.70 0.420209
1027.80 0.4201081
1027.90 0.4200073
1028.00 0.4199065
1028.10 0.4198057
1028.20 0.4197049
1028.30 0.419604
1028.40 0.419604
1028.50 0.4195032
1028.60 0.4194024
1028.70 0.4193016
1028.80 0.4192008
1028.90 0.4191
1029.00 0.4189991
1029.10 0.4189991
1029.20 0.4188983
1029.30 0.4187975
1029.40 0.4186967
1029.50 0.4185959
1029.60 0.418495
1029.70 0.4183942
1029.80 0.4183942
1029.90 0.4182934
1030.00 0.4181926
1030.10 0.4180918
1030.20 0.417991
1030.30 0.4178901
1030.40 0.4178901
1030.50 0.4177893
1030.60 0.4176885
1030.70 0.4175877
1030.80 0.4174869
1030.90 0.417386
1031.00 0.4172852
1031.10 0.4172852
1031.20 0.4171844
1031.30 0.4170836
1031.40 0.4169828
1031.50 0.416882
1031.60 0.4167811
1031.70 0.4166803
1031.80 0.4166803
1031.90 0.4165795
1032.00 0.4164787
1032.10 0.4163779
1032.20 0.4162771
1032.30 0.4161762
1032.40 0.4161762
1032.50 0.4160754
1032.60 0.4159746
1032.70 0.4158738
1032.80 0.415773
1032.90 0.4156721
1033.00 0.4155713
1033.10 0.4155713
1033.20 0.4154705
1033.30 0.4153697
1033.40 0.4152689
1033.50 0.4151681
1033.60 0.4150672
1033.70 0.4150672
1033.80 0.4149664
1033.90 0.4148656
1034.00 0.4147648
1034.10 0.414664
1034.20 0.4145631
1034.30 0.4144623
1034.40 0.4144623
1034.50 0.4143615
1034.60 0.4142607
1034.70 0.4141599
1034.80 0.4140591
1034.90 0.4139582
1035.00 0.4139582
1035.10 0.4138574
1035.20 0.4137566
1035.30 0.4136558
1035.40 0.413555
1035.50 0.4134542
1035.60 0.4134542
1035.70 0.4133533
1035.80 0.4132525
1035.90 0.4131517
1036.00 0.4130509
1036.10 0.4129501
1036.20 0.4128492
1036.30 0.4128492
1036.40 0.4127484
1036.50 0.4126476
1036.60 0.4125468
1036.70 0.412446
1036.80 0.4123452
1036.90 0.4123452
1037.00 0.4122443
1037.10 0.4121435
1037.20 0.4120427
1037.30 0.4119419
1037.40 0.4118411
1037.50 0.4118411
1037.60 0.4117402
1037.70 0.4116394
1037.80 0.4115386
1037.90 0.4114378
1038.00 0.411337
1038.10 0.411337
1038.20 0.4112362
1038.30 0.4111353
1038.40 0.4110345
1038.50 0.4109337
1038.60 0.4108329
1038.70 0.4108329
1038.80 0.4107321
1038.90 0.4106313
1039.00 0.4105304
1039.10 0.4104296
1039.20 0.4103288
1039.30 0.4103288
1039.40 0.410228
1039.50 0.4101272
1039.60 0.4100263
1039.70 0.4099255
1039.80 0.4098247
1039.90 0.4098247
1040.00 0.4097239
1040.10 0.4096231
1040.20 0.4095223
1040.30 0.4094214
1040.40 0.4093206
1040.50 0.4093206
1040.60 0.4092198
1040.70 0.409119
1040.80 0.4090182
1040.90 0.4089173
1041.00 0.4088165
1041.10 0.4088165
1041.20 0.4087157
1041.30 0.4086149
1041.40 0.4085141
1041.50 0.4084133
1041.60 0.4083124
1041.70 0.4083124
1041.80 0.4082116
1041.90 0.4081108
1042.00 0.40801
1042.10 0.4079092
1042.20 0.4078084
1042.30 0.4078084
1042.40 0.4077075
1042.50 0.4076067
1042.60 0.4075059
1042.70 0.4074051
1042.80 0.4073043
1042.90 0.4073043
1043.00 0.4072034
1043.10 0.4071026
1043.20 0.4070018
1043.30 0.406901
1043.40 0.406901
1043.50 0.4068002
1043.60 0.4066994
1043.70 0.4065985
1043.80 0.4064977
1043.90 0.4063969
1044.00 0.4063969
1044.10 0.4062961
1044.20 0.4061953
1044.30 0.4060944
1044.40 0.4059936
1044.50 0.4058928
1044.60 0.4058928
1044.70 0.405792
1044.80 0.4056912
1044.90 0.4055904
1045.00 0.4054895
1045.10 0.4054895
1045.20 0.4053887
1045.30 0.4052879
1045.40 0.4051871
1045.50 0.4050863
1045.60 0.4049854
1045.70 0.4049854
1045.80 0.4048846
1045.90 0.4047838
1046.00 0.404683
1046.10 0.4045822
1046.20 0.4044814
1046.30 0.4044814
1046.40 0.4043805
1046.50 0.4042797
1046.60 0.4041789
1046.70 0.4040781
1046.80 0.4040781
1046.90 0.4039773
1047.00 0.4038765
1047.10 0.4037756
1047.20 0.4036748
1047.30 0.403574
1047.40 0.403574
1047.50 0.4034732
1047.60 0.4033724
1047.70 0.4032715
1047.80 0.4031707
1047.90 0.4031707
1048.00 0.4030699
1048.10 0.4029691
1048.20 0.4028683
1048.30 0.4027675
1048.40 0.4026666
1048.50 0.4026666
1048.60 0.4025658
1048.70 0.402465
1048.80 0.4023642
1048.90 0.4022634
1049.00 0.4022634
1049.10 0.4021625
1049.20 0.4020617
1049.30 0.4019609
1049.40 0.4018601
1049.50 0.4017593
1049.60 0.4017593
1049.70 0.4016585
1049.80 0.4015576
1049.90 0.4014568
1050.00 0.401356
1050.10 0.401356
1050.20 0.4012552
1050.30 0.4011544
1050.40 0.4010536
1050.50 0.4009527
1050.60 0.4009527
1050.70 0.4008519
1050.80 0.4007511
1050.90 0.4006503
1051.00 0.4005495
1051.10 0.4004486
1051.20 0.4004486
1051.30 0.4003478
1051.40 0.400247
1051.50 0.4001462
1051.60 0.4000454
1051.70 0.4000454
1051.80 0.3999446
1051.90 0.3998437
1052.00 0.3997429
1052.10 0.3996421
1052.20 0.3996421
1052.30 0.3995413
1052.40 0.3994405
1052.50 0.3993396
1052.60 0.3992388
1052.70 0.3992388
1052.80 0.399138
1052.90 0.3990372
1053.00 0.3989364
1053.10 0.3988356
1053.20 0.3987347
1053.30 0.3987347
1053.40 0.3986339
1053.50 0.3985331
1053.60 0.3984323
1053.70 0.3983315
1053.80 0.3983315
1053.90 0.3982307
1054.00 0.3981298
1054.10 0.398029
1054.20 0.3979282
1054.30 0.3979282
1054.40 0.3978274
1054.50 0.3977266
1054.60 0.3976257
1054.70 0.3975249
1054.80 0.3975249
1054.90 0.3974241
1055.00 0.3973233
1055.10 0.3972225
1055.20 0.3971217
1055.30 0.3971217
1055.40 0.3970208
1055.50 0.39692
1055.60 0.3968192
1055.70 0.3967184
1055.80 0.3967184
1055.90 0.3966176
1056.00 0.3965167
1056.10 0.3964159
1056.20 0.3963151
1056.30 0.3963151
1056.40 0.3962143
1056.50 0.3961135
1056.60 0.3960127
1056.70 0.3959118
1056.80 0.3959118
1056.90 0.395811
1057.00 0.3957102
1057.10 0.3956094
1057.20 0.3955086
1057.30 0.3955086
1057.40 0.3954078
1057.50 0.3953069
1057.60 0.3952061
1057.70 0.3951053
1057.80 0.3951053
1057.90 0.3950045
1058.00 0.3949037
1058.10 0.3948028
1058.20 0.394702
1058.30 0.394702
1058.40 0.3946012
1058.50 0.3945004
1058.60 0.3943996
1058.70 0.3942988
1058.80 0.3942988
1058.90 0.3941979
1059.00 0.3940971
1059.10 0.3939963
1059.20 0.3938955
1059.30 0.3938955
1059.40 0.3937947
1059.50 0.3936938
1059.60 0.393593
1059.70 0.3934922
1059.80 0.3934922
1059.90 0.3933914
1060.00 0.3932906
1060.10 0.3931898
1060.20 0.3930889
1060.30 0.3930889
1060.40 0.3929881
1060.50 0.3928873
1060.60 0.3927865
1060.70 0.3926857
1060.80 0.3926857
1060.90 0.3925848
1061.00 0.392484
1061.10 0.3923832
1061.20 0.3922824
1061.30 0.3922824
1061.40 0.3921816
1061.50 0.3920808
1061.60 0.3919799
1061.70 0.3919799
1061.80 0.3918791
1061.90 0.3917783
1062.00 0.3916775
1062.10 0.3915767
1062.20 0.3915767
1062.30 0.3914759
1062.40 0.391375
1062.50 0.3912742
1062.60 0.3911734
1062.70 0.3911734
1062.80 0.3910726
1062.90 0.3909718
1063.00 0.3908709
1063.10 0.3907701
1063.20 0.3907701
1063.30 0.3906693
1063.40 0.3905685
1063.50 0.3904677
1063.60 0.3904677
1063.70 0.3903669
1063.80 0.390266
1063.90 0.3901652
1064.00 0.3900644
1064.10 0.3900644
1064.20 0.3899636
1064.30 0.3898628
1064.40 0.3897619
1064.50 0.3896611
1064.60 0.3896611
1064.70 0.3895603
1064.80 0.3894595
1064.90 0.3893587
1065.00 0.3892579
1065.10 0.3892579
1065.20 0.389157
1065.30 0.3890562
1065.40 0.3889554
1065.50 0.3889554
1065.60 0.3888546
1065.70 0.3887538
1065.80 0.388653
1065.90 0.3885521
1066.00 0.3885521
1066.10 0.3884513
1066.20 0.3883505
1066.30 0.3882497
1066.40 0.3882497
1066.50 0.3881489
1066.60 0.388048
1066.70 0.3879472
1066.80 0.3878464
1066.90 0.3878464
1067.00 0.3877456
1067.10 0.3876448
1067.20 0.387544
1067.30 0.3874431
1067.40 0.3874431
1067.50 0.3873423
1067.60 0.3872415
1067.70 0.3871407
1067.80 0.3871407
1067.90 0.3870399
1068.00 0.386939
1068.10 0.3868382
1068.20 0.3867374
1068.30 0.3867374
1068.40 0.3866366
1068.50 0.3865358
1068.60 0.386435
1068.70 0.386435
1068.80 0.3863341
1068.90 0.3862333
1069.00 0.3861325
1069.10 0.3860317
1069.20 0.3860317
1069.30 0.3859309
1069.40 0.3858301
1069.50 0.3857292
1069.60 0.3857292
1069.70 0.3856284
1069.80 0.3855276
1069.90 0.3854268
1070.00 0.385326
1070.10 0.385326
1070.20 0.3852251
1070.30 0.3851243
1070.40 0.3850235
1070.50 0.3850235
1070.60 0.3849227
1070.70 0.3848219
1070.80 0.3847211
1070.90 0.3846202
1071.00 0.3846202
1071.10 0.3845194
1071.20 0.3844186
1071.30 0.3843178
1071.40 0.3843178
1071.50 0.384217
1071.60 0.3841161
1071.70 0.3840153
1071.80 0.3839145
1071.90 0.3839145
1072.00 0.3838137
1072.10 0.3837129
1072.20 0.3836121
1072.30 0.3836121
1072.40 0.3835112
1072.50 0.3834104
1072.60 0.3833096
1072.70 0.3833096
1072.80 0.3832088
1072.90 0.383108
1073.00 0.3830072
1073.10 0.3829063
1073.20 0.3829063
1073.30 0.3828055
1073.40 0.3827047
1073.50 0.3826039
1073.60 0.3826039
1073.70 0.3825031
1073.80 0.3824022
1073.90 0.3823014
1074.00 0.3823014
1074.10 0.3822006
1074.20 0.3820998
1074.30 0.381999
1074.40 0.3818982
1074.50 0.3818982
1074.60 0.3817973
1074.70 0.3816965
1074.80 0.3815957
1074.90 0.3815957
1075.00 0.3814949
1075.10 0.3813941
1075.20 0.3812932
1075.30 0.3812932
1075.40 0.3811924
1075.50 0.3810916
1075.60 0.3809908
1075.70 0.38089
1075.80 0.38089
1075.90 0.3807892
1076.00 0.3806883
1076.10 0.3805875
1076.20 0.3805875
1076.30 0.3804867
1076.40 0.3803859
1076.50 0.3802851
1076.60 0.3802851
1076.70 0.3801842
1076.80 0.3800834
1076.90 0.3799826
1077.00 0.3799826
1077.10 0.3798818
1077.20 0.379781
1077.30 0.3796802
1077.40 0.3795793
1077.50 0.3795793
1077.60 0.3794785
1077.70 0.3793777
1077.80 0.3792769
1077.90 0.3792769
1078.00 0.3791761
1078.10 0.3790753
1078.20 0.3789744
1078.30 0.3789744
1078.40 0.3788736
1078.50 0.3787728
1078.60 0.378672
1078.70 0.378672
1078.80 0.3785712
1078.90 0.3784703
1079.00 0.3783695
1079.10 0.3783695
1079.20 0.3782687
1079.30 0.3781679
1079.40 0.3780671
1079.50 0.3779663
1079.60 0.3779663
1079.70 0.3778654
1079.80 0.3777646
1079.90 0.3776638
1080.00 0.3776638
1080.10 0.377563
1080.20 0.3774622
1080.30 0.3773613
1080.40 0.3773613
1080.50 0.3772605
1080.60 0.3771597
1080.70 0.3770589
1080.80 0.3770589
1080.90 0.3769581
1081.00 0.3768573
1081.10 0.3767564
1081.20 0.3767564
1081.30 0.3766556
1081.40 0.3765548
1081.50 0.376454
1081.60 0.376454
1081.70 0.3763532
1081.80 0.3762524
1081.90 0.3761515
1082.00 0.3761515
1082.10 0.3760507
1082.20 0.3759499
1082.30 0.3758491
1082.40 0.3758491
1082.50 0.3757483
1082.60 0.3756474
1082.70 0.3755466
1082.80 0.3755466
1082.90 0.3754458
1083.00 0.375345
1083.10 0.3752442
1083.20 0.3751434
1083.30 0.3751434
1083.40 0.3750425
1083.50 0.3749417
1083.60 0.3748409
1083.70 0.3748409
1083.80 0.3747401
1083.90 0.3746393
1084.00 0.3745384
1084.10 0.3745384
1084.20 0.3744376
1084.30 0.3743368
1084.40 0.374236
1084.50 0.374236
1084.60 0.3741352
1084.70 0.3740344
1084.80 0.3739335
1084.90 0.3739335
1085.00 0.3738327
1085.10 0.3737319
1085.20 0.3736311
1085.30 0.3736311
1085.40 0.3735303
1085.50 0.3734295
1085.60 0.3733286
1085.70 0.3733286
1085.80 0.3732278
1085.90 0.373127
1086.00 0.3730262
1086.10 0.3730262
1086.20 0.3729254
1086.30 0.3728245
1086.40 0.3727237
1086.50 0.3727237
1086.60 0.3726229
1086.70 0.3725221
1086.80 0.3724213
1086.90 0.3724213
1087.00 0.3723205
1087.10 0.3722196
1087.20 0.3721188
1087.30 0.3721188
1087.40 0.372018
1087.50 0.3719172
1087.60 0.3719172
1087.70 0.3718164
1087.80 0.3717155
1087.90 0.3716147
1088.00 0.3716147
1088.10 0.3715139
1088.20 0.3714131
1088.30 0.3713123
1088.40 0.3713123
1088.50 0.3712115
1088.60 0.3711106
1088.70 0.3710098
1088.80 0.3710098
1088.90 0.370909
1089.00 0.3708082
1089.10 0.3707074
1089.20 0.3707074
1089.30 0.3706066
1089.40 0.3705057
1089.50 0.3704049
1089.60 0.3704049
1089.70 0.3703041
1089.80 0.3702033
1089.90 0.3701025
1090.00 0.3701025
1090.10 0.3700016
1090.20 0.3699008
1090.30 0.3698
1090.40 0.3698
1090.50 0.3696992
1090.60 0.3695984
1090.70 0.3694976
1090.80 0.3694976
1090.90 0.3693967
1091.00 0.3692959
1091.10 0.3691951
1091.20 0.3691951
1091.30 0.3690943
1091.40 0.3689935
1091.50 0.3688926
1091.60 0.3688926
1091.70 0.3687918
1091.80 0.368691
1091.90 0.3685902
1092.00 0.3684894
1092.10 0.3684894
1092.20 0.3683886
1092.30 0.3682877
1092.40 0.3681869
1092.50 0.3680861
1092.60 0.3679853
1092.70 0.3678845
1092.80 0.3676828
1092.90 0.3674812
1093.00 0.3673804
1093.10 0.3670779
1093.20 0.3667755
1093.30 0.366473
1093.40 0.3660697
1093.50 0.3658681
1093.60 0.3660697
1093.70 0.3663722
1093.80 0.366473
1093.90 0.3666747
1094.00 0.3666747
1094.10 0.3666747
1094.20 0.3666747
1094.30 0.3666747
1094.40 0.3666747
1094.50 0.3665738
1094.60 0.3665738
1094.70 0.366473
1094.80 0.366473
1094.90 0.3663722
1095.00 0.3662714
1095.10 0.3662714
1095.20 0.3661706
1095.30 0.3660697
1095.40 0.3660697
1095.50 0.3659689
1095.60 0.3658681
1095.70 0.3657673
1095.80 0.3657673
1095.90 0.3656665
1096.00 0.3655657
1096.10 0.3655657
1096.20 0.3654648
1096.30 0.365364
1096.40 0.3652632
1096.50 0.3652632
1096.60 0.3651624
1096.70 0.3650616
1096.80 0.3650616
1096.90 0.3649607
1097.00 0.3648599
1097.10 0.3647591
1097.20 0.3647591
1097.30 0.3646583
1097.40 0.3645575
1097.50 0.3645575
1097.60 0.3644567
1097.70 0.3643558
1097.80 0.364255
1097.90 0.364255
1098.00 0.3641542
1098.10 0.3640534
1098.20 0.3639526
1098.30 0.3639526
1098.40 0.3638518
1098.50 0.3637509
1098.60 0.3637509
1098.70 0.3636501
1098.80 0.3635493
1098.90 0.3634485
1099.00 0.3634485
1099.10 0.3633477
1099.20 0.3632468
1099.30 0.363146
1099.40 0.363146
1099.50 0.3630452
1099.60 0.3629444
1099.70 0.3629444
1099.80 0.3628436
1099.90 0.3627428
1100.00 0.3626419
1100.10 0.3626419
1100.20 0.3625411
1100.30 0.3624403
1100.40 0.3624403
1100.50 0.3623395
1100.60 0.3622387
1100.70 0.3621378
1100.80 0.3621378
1100.90 0.362037
1101.00 0.3619362
1101.10 0.3618354
1101.20 0.3618354
1101.30 0.3617346
1101.40 0.3616338
1101.50 0.3616338
1101.60 0.3615329
1101.70 0.3614321
1101.80 0.3613313
1101.90 0.3613313
1102.00 0.3612305
1102.10 0.3611297
1102.20 0.3610289
1102.30 0.3610289
1102.40 0.360928
1102.50 0.3608272
1102.60 0.3608272
1102.70 0.3607264
1102.80 0.3606256
1102.90 0.3605248
1103.00 0.3605248
1103.10 0.3604239
1103.20 0.3603231
1103.30 0.3603231
1103.40 0.3602223
1103.50 0.3601215
1103.60 0.3600207
1103.70 0.3600207
1103.80 0.3599199
1103.90 0.359819
1104.00 0.359819
1104.10 0.3597182
1104.20 0.3596174
1104.30 0.3595166
1104.40 0.3595166
1104.50 0.3594158
1104.60 0.3593149
1104.70 0.3593149
1104.80 0.3592141
1104.90 0.3591133
1105.00 0.3590125
1105.10 0.3590125
1105.20 0.3589117
1105.30 0.3588109
1105.40 0.3588109
1105.50 0.35871
1105.60 0.3586092
1105.70 0.3585084
1105.80 0.3585084
1105.90 0.3584076
1106.00 0.3583068
1106.10 0.3583068
1106.20 0.358206
1106.30 0.3581051
1106.40 0.3580043
1106.50 0.3580043
1106.60 0.3579035
1106.70 0.3578027
1106.80 0.3578027
1106.90 0.3577019
1107.00 0.357601
1107.10 0.3575002
1107.20 0.3575002
1107.30 0.3573994
1107.40 0.3572986
1107.50 0.3572986
1107.60 0.3571978
1107.70 0.357097
1107.80 0.3569961
1107.90 0.3569961
1108.00 0.3568953
1108.10 0.3567945
1108.20 0.3567945
1108.30 0.3566937
1108.40 0.3565929
1108.50 0.356492
1108.60 0.356492
1108.70 0.3563912
1108.80 0.3562904
1108.90 0.3562904
1109.00 0.3561896
1109.10 0.3560888
1109.20 0.355988
1109.30 0.355988
1109.40 0.3558871
1109.50 0.3557863
1109.60 0.3557863
1109.70 0.3556855
1109.80 0.3555847
1109.90 0.3554839
1110.00 0.3554839
1110.10 0.355383
1110.20 0.3552822
1110.30 0.3552822
1110.40 0.3551814
1110.50 0.3550806
1110.60 0.3550806
1110.70 0.3549798
1110.80 0.354879
1110.90 0.3547781
1111.00 0.3547781
1111.10 0.3546773
1111.20 0.3545765
1111.30 0.3545765
1111.40 0.3544757
1111.50 0.3543749
1111.60 0.3542741
1111.70 0.3542741
1111.80 0.3541732
1111.90 0.3540724
1112.00 0.3540724
1112.10 0.3539716
1112.20 0.3538708
1112.30 0.3538708
1112.40 0.35377
1112.50 0.3536691
1112.60 0.3535683
1112.70 0.3535683
1112.80 0.3534675
1112.90 0.3533667
1113.00 0.3533667
1113.10 0.3532659
1113.20 0.3531651
1113.30 0.3531651
1113.40 0.3530642
1113.50 0.3529634
1113.60 0.3528626
1113.70 0.3528626
1113.80 0.3527618
1113.90 0.352661
1114.00 0.352661
1114.10 0.3525601
1114.20 0.3524593
1114.30 0.3524593
1114.40 0.3523585
1114.50 0.3522577
1114.60 0.3521569
1114.70 0.3521569
1114.80 0.3520561
1114.90 0.3519552
1115.00 0.3519552
1115.10 0.3518544
1115.20 0.3517536
1115.30 0.3517536
1115.40 0.3516528
1115.50 0.351552
1115.60 0.3514512
1115.70 0.3514512
1115.80 0.3513503
1115.90 0.3512495
1116.00 0.3512495
1116.10 0.3511487
1116.20 0.3510479
1116.30 0.3510479
1116.40 0.3509471
1116.50 0.3508462
1116.60 0.3507454
1116.70 0.3507454
1116.80 0.3506446
1116.90 0.3505438
1117.00 0.3505438
1117.10 0.350443
1117.20 0.3503422
1117.30 0.3503422
1117.40 0.3502413
1117.50 0.3501405
1117.60 0.3501405
1117.70 0.3500397
1117.80 0.3499389
1117.90 0.3498381
1118.00 0.3498381
1118.10 0.3497372
1118.20 0.3496364
1118.30 0.3496364
1118.40 0.3495356
1118.50 0.3494348
1118.60 0.3494348
1118.70 0.349334
1118.80 0.3492332
1118.90 0.3492332
1119.00 0.3491323
1119.10 0.3490315
1119.20 0.3489307
1119.30 0.3489307
1119.40 0.3488299
1119.50 0.3487291
1119.60 0.3487291
1119.70 0.3486283
1119.80 0.3485274
1119.90 0.3485274
1120.00 0.3484266
1120.10 0.3483258
1120.20 0.3483258
1120.30 0.348225
1120.40 0.3481242
1120.50 0.3480233
1120.60 0.3480233
1120.70 0.3479225
1120.80 0.3478217
1120.90 0.3478217
1121.00 0.3477209
1121.10 0.3476201
1121.20 0.3476201
1121.30 0.3475193
1121.40 0.3474184
1121.50 0.3474184
1121.60 0.3473176
1121.70 0.3472168
1121.80 0.3472168
1121.90 0.347116
1122.00 0.3470152
1122.10 0.3469143
1122.20 0.3469143
1122.30 0.3468135
1122.40 0.3467127
1122.50 0.3467127
1122.60 0.3466119
1122.70 0.3465111
1122.80 0.3465111
1122.90 0.3464103
1123.00 0.3463094
1123.10 0.3463094
1123.20 0.3462086
1123.30 0.3461078
1123.40 0.3461078
1123.50 0.346007
1123.60 0.3459062
1123.70 0.3458054
1123.80 0.3458054
1123.90 0.3457045
1124.00 0.3456037
1124.10 0.3456037
1124.20 0.3455029
1124.30 0.3454021
1124.40 0.3454021
1124.50 0.3453013
1124.60 0.3452004
1124.70 0.3452004
1124.80 0.3450996
1124.90 0.3449988
1125.00 0.3449988
1125.10 0.344898
1125.20 0.3447972
1125.30 0.3447972
1125.40 0.3446964
1125.50 0.3445955
1125.60 0.3444947
1125.70 0.3444947
1125.80 0.3443939
1125.90 0.3442931
1126.00 0.3442931
1126.10 0.3441923
1126.20 0.3440914
1126.30 0.3440914
1126.40 0.3439906
1126.50 0.3438898
1126.60 0.3438898
1126.70 0.343789
1126.80 0.3436882
1126.90 0.3436882
1127.00 0.3435874
1127.10 0.3434865
1127.20 0.3434865
1127.30 0.3433857
1127.40 0.3432849
1127.50 0.3432849
1127.60 0.3431841
1127.70 0.3430833
1127.80 0.3429824
1127.90 0.3429824
1128.00 0.3428816
1128.10 0.3427808
1128.20 0.3427808
1128.30 0.34268
1128.40 0.3425792
1128.50 0.3425792
1128.60 0.3424784
1128.70 0.3423775
1128.80 0.3423775
1128.90 0.3422767
1129.00 0.3421759
1129.10 0.3421759
1129.20 0.3420751
1129.30 0.3419743
1129.40 0.3419743
1129.50 0.3418735
1129.60 0.3417726
1129.70 0.3417726
1129.80 0.3416718
1129.90 0.341571
1130.00 0.341571
1130.10 0.3414702
1130.20 0.3413694
1130.30 0.3413694
1130.40 0.3412685
1130.50 0.3411677
1130.60 0.3411677
1130.70 0.3410669
1130.80 0.3409661
1130.90 0.3409661
1131.00 0.3408653
1131.10 0.3407645
1131.20 0.3407645
1131.30 0.3406636
1131.40 0.3405628
1131.50 0.3405628
1131.60 0.340462
1131.70 0.3403612
1131.80 0.3402604
1131.90 0.3402604
1132.00 0.3401595
1132.10 0.3400587
1132.20 0.3400587
1132.30 0.3399579
1132.40 0.3398571
1132.50 0.3398571
1132.60 0.3397563
1132.70 0.3396555
1132.80 0.3396555
1132.90 0.3395546
1133.00 0.3394538
1133.10 0.3394538
1133.20 0.339353
1133.30 0.3392522
1133.40 0.3392522
1133.50 0.3391514
1133.60 0.3390506
1133.70 0.3390506
1133.80 0.3389497
1133.90 0.3388489
1134.00 0.3388489
1134.10 0.3387481
1134.20 0.3386473
1134.30 0.3386473
1134.40 0.3385465
1134.50 0.3384456
1134.60 0.3384456
1134.70 0.3383448
1134.80 0.338244
1134.90 0.338244
1135.00 0.3381432
1135.10 0.3380424
1135.20 0.3380424
1135.30 0.3379416
1135.40 0.3378407
1135.50 0.3378407
1135.60 0.3377399
1135.70 0.3376391
1135.80 0.3376391
1135.90 0.3375383
1136.00 0.3374375
1136.10 0.3374375
1136.20 0.3373366
1136.30 0.3372358
1136.40 0.3372358
1136.50 0.337135
1136.60 0.3370342
1136.70 0.3370342
1136.80 0.3369334
1136.90 0.3368326
1137.00 0.3368326
1137.10 0.3367317
1137.20 0.3366309
1137.30 0.3366309
1137.40 0.3365301
1137.50 0.3364293
1137.60 0.3364293
1137.70 0.3363285
1137.80 0.3362277
1137.90 0.3362277
1138.00 0.3361268
1138.10 0.336026
1138.20 0.336026
1138.30 0.3359252
1138.40 0.3359252
1138.50 0.3358244
1138.60 0.3357236
1138.70 0.3357236
1138.80 0.3356227
1138.90 0.3355219
1139.00 0.3355219
1139.10 0.3354211
1139.20 0.3353203
1139.30 0.3353203
1139.40 0.3352195
1139.50 0.3351187
1139.60 0.3351187
1139.70 0.3350178
1139.80 0.334917
1139.90 0.334917
1140.00 0.3348162
1140.10 0.3347154
1140.20 0.3347154
1140.30 0.3346146
1140.40 0.3345137
1140.50 0.3345137
1140.60 0.3344129
1140.70 0.3343121
1140.80 0.3343121
1140.90 0.3342113
1141.00 0.3341105
1141.10 0.3341105
1141.20 0.3340097
1141.30 0.3339088
1141.40 0.3339088
1141.50 0.333808
1141.60 0.3337072
1141.70 0.3337072
1141.80 0.3336064
1141.90 0.3335056
1142.00 0.3335056
1142.10 0.3334048
1142.20 0.3333039
1142.30 0.3333039
1142.40 0.3332031
1142.50 0.3332031
1142.60 0.3331023
1142.70 0.3330015
1142.80 0.3330015
1142.90 0.3329007
1143.00 0.3327998
1143.10 0.3327998
1143.20 0.332699
1143.30 0.3325982
1143.40 0.3325982
1143.50 0.3324974
1143.60 0.3323966
1143.70 0.3323966
1143.80 0.3322958
1143.90 0.3321949
1144.00 0.3321949
1144.10 0.3320941
1144.20 0.3319933
1144.30 0.3319933
1144.40 0.3318925
1144.50 0.3317917
1144.60 0.3317917
1144.70 0.3316908
1144.80 0.33159
1144.90 0.33159
1145.00 0.3314892
1145.10 0.3314892
1145.20 0.3313884
1145.30 0.3312876
1145.40 0.3312876
1145.50 0.3311868
1145.60 0.3310859
1145.70 0.3310859
1145.80 0.3309851
1145.90 0.3308843
1146.00 0.3308843
1146.10 0.3307835
1146.20 0.3306827
1146.30 0.3306827
1146.40 0.3305818
1146.50 0.330481
1146.60 0.330481
1146.70 0.3303802
1146.80 0.3302794
1146.90 0.3302794
1147.00 0.3301786
1147.10 0.3301786
1147.20 0.3300778
1147.30 0.3299769
1147.40 0.3299769
1147.50 0.3298761
1147.60 0.3297753
1147.70 0.3297753
1147.80 0.3296745
1147.90 0.3295737
1148.00 0.3295737
1148.10 0.3294729
1148.20 0.329372
1148.30 0.329372
1148.40 0.3292712
1148.50 0.3291704
1148.60 0.3291704
1148.70 0.3290696
1148.80 0.3290696
1148.90 0.3289688
1149.00 0.3288679
1149.10 0.3288679
1149.20 0.3287671
1149.30 0.3286663
1149.40 0.3286663
1149.50 0.3285655
1149.60 0.3284647
1149.70 0.3284647
1149.80 0.3283639
1149.90 0.328263
1150.00 0.328263
1150.10 0.3281622
1150.20 0.3281622
1150.30 0.3280614
1150.40 0.3279606
1150.50 0.3279606
1150.60 0.3278598
1150.70 0.3277589
1150.80 0.3277589
1150.90 0.3276581
1151.00 0.3275573
1151.10 0.3275573
1151.20 0.3274565
1151.30 0.3273557
1151.40 0.3273557
1151.50 0.3272549
1151.60 0.3272549
1151.70 0.327154
1151.80 0.3270532
1151.90 0.3270532
1152.00 0.3269524
1152.10 0.3268516
1152.20 0.3268516
1152.30 0.3267508
1152.40 0.32665
1152.50 0.32665
1152.60 0.3265491
1152.70 0.3264483
1152.80 0.3264483
1152.90 0.3263475
1153.00 0.3263475
1153.10 0.3262467
1153.20 0.3261459
1153.30 0.3261459
1153.40 0.326045
1153.50 0.3259442
1153.60 0.3259442
1153.70 0.3258434
1153.80 0.3257426
1153.90 0.3257426
1154.00 0.3256418
1154.10 0.3256418
1154.20 0.325541
1154.30 0.3254401
1154.40 0.3254401
1154.50 0.3253393
1154.60 0.3252385
1154.70 0.3252385
1154.80 0.3251377
1154.90 0.3250369
1155.00 0.3250369
1155.10 0.324936
1155.20 0.324936
1155.30 0.3248352
1155.40 0.3247344
1155.50 0.3247344
1155.60 0.3246336
1155.70 0.3245328
1155.80 0.3245328
1155.90 0.324432
1156.00 0.3243311
1156.10 0.3243311
1156.20 0.3242303
1156.30 0.3242303
1156.40 0.3241295
1156.50 0.3240287
1156.60 0.3240287
1156.70 0.3239279
1156.80 0.3238271
1156.90 0.3238271
1157.00 0.3237262
1157.10 0.3237262
1157.20 0.3236254
1157.30 0.3235246
1157.40 0.3235246
1157.50 0.3234238
1157.60 0.323323
1157.70 0.323323
1157.80 0.3232221
1157.90 0.3231213
1158.00 0.3231213
1158.10 0.3230205
1158.20 0.3230205
1158.30 0.3229197
1158.40 0.3228189
1158.50 0.3228189
1158.60 0.3227181
1158.70 0.3226172
1158.80 0.3226172
1158.90 0.3225164
1159.00 0.3224156
1159.10 0.3224156
1159.20 0.3223148
1159.30 0.3223148
1159.40 0.322214
1159.50 0.3221131
1159.60 0.3221131
1159.70 0.3220123
1159.80 0.3219115
1159.90 0.3219115
1160.00 0.3218107
1160.10 0.3218107
1160.20 0.3217099
1160.30 0.3216091
1160.40 0.3216091
1160.50 0.3215082
1160.60 0.3214074
1160.70 0.3214074
1160.80 0.3213066
1160.90 0.3213066
1161.00 0.3212058
1161.10 0.321105
1161.20 0.321105
1161.30 0.3210042
1161.40 0.3209033
1161.50 0.3209033
1161.60 0.3208025
1161.70 0.3208025
1161.80 0.3207017
1161.90 0.3206009
1162.00 0.3206009
1162.10 0.3205001
1162.20 0.3203992
1162.30 0.3203992
1162.40 0.3202984
1162.50 0.3202984
1162.60 0.3201976
1162.70 0.3200968
1162.80 0.3200968
1162.90 0.319996
1163.00 0.3198952
1163.10 0.3198952
1163.20 0.3197943
1163.30 0.3197943
1163.40 0.3196935
1163.50 0.3195927
1163.60 0.3195927
1163.70 0.3194919
1163.80 0.3193911
1163.90 0.3193911
1164.00 0.3192902
1164.10 0.3192902
1164.20 0.3191894
1164.30 0.3190886
1164.40 0.3190886
1164.50 0.3189878
1164.60 0.318887
1164.70 0.318887
1164.80 0.3187862
1164.90 0.3187862
1165.00 0.3186853
1165.10 0.3185845
1165.20 0.3185845
1165.30 0.3184837
1165.40 0.3183829
1165.50 0.3183829
1165.60 0.3182821
1165.70 0.3182821
1165.80 0.3181812
1165.90 0.3180804
1166.00 0.3180804
1166.10 0.3179796
1166.20 0.3179796
1166.30 0.3178788
1166.40 0.317778
1166.50 0.317778
1166.60 0.3176772
1166.70 0.3175763
1166.80 0.3175763
1166.90 0.3174755
1167.00 0.3174755
1167.10 0.3173747
1167.20 0.3172739
1167.30 0.3172739
1167.40 0.3171731
1167.50 0.3170723
1167.60 0.3170723
1167.70 0.3169714
1167.80 0.3169714
1167.90 0.3168706
1168.00 0.3167698
1168.10 0.3167698
1168.20 0.316669
1168.30 0.316669
1168.40 0.3165682
1168.50 0.3164673
1168.60 0.3164673
1168.70 0.3163665
1168.80 0.3162657
1168.90 0.3162657
1169.00 0.3161649
1169.10 0.3161649
1169.20 0.3160641
1169.30 0.3159633
1169.40 0.3159633
1169.50 0.3158624
1169.60 0.3158624
1169.70 0.3157616
1169.80 0.3156608
1169.90 0.3156608
1170.00 0.31556
1170.10 0.3154592
1170.20 0.3154592
1170.30 0.3153583
1170.40 0.3153583
1170.50 0.3152575
1170.60 0.3151567
1170.70 0.3151567
1170.80 0.3150559
1170.90 0.3150559
1171.00 0.3149551
1171.10 0.3148543
1171.20 0.3148543
1171.30 0.3147534
1171.40 0.3147534
1171.50 0.3146526
1171.60 0.3145518
1171.70 0.3145518
1171.80 0.314451
1171.90 0.3143502
1172.00 0.3143502
1172.10 0.3142494
1172.20 0.3142494
1172.30 0.3141485
1172.40 0.3140477
1172.50 0.3140477
1172.60 0.3139469
1172.70 0.3139469
1172.80 0.3138461
1172.90 0.3137453
1173.00 0.3137453
1173.10 0.3136444
1173.20 0.3136444
1173.30 0.3135436
1173.40 0.3134428
1173.50 0.3134428
1173.60 0.313342
1173.70 0.3132412
1173.80 0.3132412
1173.90 0.3131404
1174.00 0.3131404
1174.10 0.3130395
1174.20 0.3129387
1174.30 0.3129387
1174.40 0.3128379
1174.50 0.3128379
1174.60 0.3127371
1174.70 0.3126363
1174.80 0.3126363
1174.90 0.3125354
1175.00 0.3125354
1175.10 0.3124346
1175.20 0.3123338
1175.30 0.3123338
1175.40 0.312233
1175.50 0.312233
1175.60 0.3121322
1175.70 0.3120314
1175.80 0.3120314
1175.90 0.3119305
1176.00 0.3119305
1176.10 0.3118297
1176.20 0.3117289
1176.30 0.3117289
1176.40 0.3116281
1176.50 0.3115273
1176.60 0.3115273
1176.70 0.3114265
1176.80 0.3114265
1176.90 0.3113256
1177.00 0.3112248
1177.10 0.3112248
1177.20 0.311124
1177.30 0.311124
1177.40 0.3110232
1177.50 0.3109224
1177.60 0.3109224
1177.70 0.3108215
1177.80 0.3108215
1177.90 0.3107207
1178.00 0.3106199
1178.10 0.3106199
1178.20 0.3105191
1178.30 0.3105191
1178.40 0.3104183
1178.50 0.3103175
1178.60 0.3103175
1178.70 0.3102166
1178.80 0.3102166
1178.90 0.3101158
1179.00 0.310015
1179.10 0.310015
1179.20 0.3099142
1179.30 0.3099142
1179.40 0.3098134
1179.50 0.3097125
1179.60 0.3097125
1179.70 0.3096117
1179.80 0.3096117
1179.90 0.3095109
1180.00 0.3094101
1180.10 0.3094101
1180.20 0.3093093
1180.30 0.3093093
1180.40 0.3092085
1180.50 0.3091076
1180.60 0.3091076
1180.70 0.3090068
1180.80 0.3090068
1180.90 0.308906
1181.00 0.3088052
1181.10 0.3088052
1181.20 0.3087044
1181.30 0.3087044
1181.40 0.3086036
1181.50 0.3085027
1181.60 0.3085027
1181.70 0.3084019
1181.80 0.3084019
1181.90 0.3083011
1182.00 0.3083011
1182.10 0.3082003
1182.20 0.3080995
1182.30 0.3080995
1182.40 0.3079986
1182.50 0.3079986
1182.60 0.3078978
1182.70 0.307797
1182.80 0.307797
1182.90 0.3076962
1183.00 0.3076962
1183.10 0.3075954
1183.20 0.3074946
1183.30 0.3074946
1183.40 0.3073937
1183.50 0.3073937
1183.60 0.3072929
1183.70 0.3071921
1183.80 0.3071921
1183.90 0.3070913
1184.00 0.3070913
1184.10 0.3069905
1184.20 0.3068896
1184.30 0.3068896
1184.40 0.3067888
1184.50 0.3067888
1184.60 0.306688
1184.70 0.3065872
1184.80 0.3065872
1184.90 0.3064864
1185.00 0.3064864
1185.10 0.3063856
1185.20 0.3062847
1185.30 0.3062847
1185.40 0.3061839
1185.50 0.3061839
1185.60 0.3060831
1185.70 0.3060831
1185.80 0.3059823
1185.90 0.3058815
1186.00 0.3058815
1186.10 0.3057806
1186.20 0.3057806
1186.30 0.3056798
1186.40 0.305579
1186.50 0.305579
1186.60 0.3054782
1186.70 0.3054782
1186.80 0.3053774
1186.90 0.3052766
1187.00 0.3052766
1187.10 0.3051757
1187.20 0.3051757
1187.30 0.3050749
1187.40 0.3050749
1187.50 0.3049741
1187.60 0.3048733
1187.70 0.3048733
1187.80 0.3047725
1187.90 0.3047725
1188.00 0.3046717
1188.10 0.3045708
1188.20 0.3045708
1188.30 0.30447
1188.40 0.30447
1188.50 0.3043692
1188.60 0.3042684
1188.70 0.3042684
1188.80 0.3041676
1188.90 0.3041676
1189.00 0.3040667
1189.10 0.3040667
1189.20 0.3039659
1189.30 0.3038651
1189.40 0.3038651
1189.50 0.3037643
1189.60 0.3037643
1189.70 0.3036635
1189.80 0.3035627
1189.90 0.3035627
1190.00 0.3034618
1190.10 0.3034618
1190.20 0.303361
1190.30 0.3032602
1190.40 0.3032602
1190.50 0.3031594
1190.60 0.3031594
1190.70 0.3030586
1190.80 0.3030586
1190.90 0.3029577
1191.00 0.3028569
1191.10 0.3028569
1191.20 0.3027561
1191.30 0.3027561
1191.40 0.3026553
1191.50 0.3025545
1191.60 0.3025545
1191.70 0.3024537
1191.80 0.3024537
1191.90 0.3023528
1192.00 0.3023528
1192.10 0.302252
1192.20 0.3021512
1192.30 0.3021512
1192.40 0.3020504
1192.50 0.3020504
1192.60 0.3019496
1192.70 0.3018488
1192.80 0.3018488
1192.90 0.3017479
1193.00 0.3017479
1193.10 0.3016471
1193.20 0.3016471
1193.30 0.3015463
1193.40 0.3014455
1193.50 0.3014455
1193.60 0.3013447
1193.70 0.3013447
1193.80 0.3012438
1193.90 0.3012438
1194.00 0.301143
1194.10 0.3010422
1194.20 0.3010422
1194.30 0.3009414
1194.40 0.3009414
1194.50 0.3008406
1194.60 0.3007398
1194.70 0.3007398
1194.80 0.3006389
1194.90 0.3006389
1195.00 0.3005381
1195.10 0.3005381
1195.20 0.3004373
1195.30 0.3003365
1195.40 0.3003365
1195.50 0.3002357
1195.60 0.3002357
1195.70 0.3001348
1195.80 0.3001348
1195.90 0.300034
1196.00 0.2999332
1196.10 0.2999332
1196.20 0.2998324
1196.30 0.2998324
1196.40 0.2997316
1196.50 0.2997316
1196.60 0.2996308
1196.70 0.2995299
1196.80 0.2995299
1196.90 0.2994291
1197.00 0.2994291
1197.10 0.2993283
1197.20 0.2992275
1197.30 0.2992275
1197.40 0.2991267
1197.50 0.2991267
1197.60 0.2990259
1197.70 0.2990259
1197.80 0.298925
1197.90 0.2988242
1198.00 0.2988242
1198.10 0.2987234
1198.20 0.2987234
1198.30 0.2986226
1198.40 0.2986226
1198.50 0.2985218
1198.60 0.2984209
1198.70 0.2984209
1198.80 0.2983201
1198.90 0.2983201
1199.00 0.2982193
1199.10 0.2982193
1199.20 0.2981185
1199.30 0.2980177
1199.40 0.2980177
1199.50 0.2979169
1199.60 0.2979169
1199.70 0.297816
1199.80 0.297816
1199.90 0.2977152
1200.00 0
