# Version 2.1 - nm, norm@500 to 1, cut digits, bergeron_5500_80.dat_5500
# Wavelength(nm)  Flambda(ergs/cm^s/s/nm)
300.00 0.51
300.10 0.5105
300.20 0.511
300.30 0.5115
300.40 0.5119
300.50 0.5124
300.60 0.5129
300.70 0.5134
300.80 0.5139
300.90 0.5144
301.00 0.5149
301.10 0.5154
301.20 0.5159
301.30 0.5164
301.40 0.5168
301.50 0.5173
301.60 0.5178
301.70 0.5183
301.80 0.5188
301.90 0.5193
302.00 0.5197
302.10 0.5202
302.20 0.5207
302.30 0.5212
302.40 0.5217
302.50 0.5222
302.60 0.5227
302.70 0.5232
302.80 0.5237
302.90 0.5241
303.00 0.5246
303.10 0.5251
303.20 0.5256
303.30 0.5261
303.40 0.5266
303.50 0.5271
303.60 0.5275
303.70 0.528
303.80 0.5285
303.90 0.529
304.00 0.5295
304.10 0.53
304.20 0.5304
304.30 0.5309
304.40 0.5314
304.50 0.5319
304.60 0.5324
304.70 0.5329
304.80 0.5334
304.90 0.5338
305.00 0.5343
305.10 0.5348
305.20 0.5353
305.30 0.5358
305.40 0.5363
305.50 0.5367
305.60 0.5372
305.70 0.5377
305.80 0.5382
305.90 0.5387
306.00 0.5391
306.10 0.5396
306.20 0.5401
306.30 0.5406
306.40 0.5411
306.50 0.5416
306.60 0.542
306.70 0.5425
306.80 0.543
306.90 0.5435
307.00 0.544
307.10 0.5445
307.20 0.5449
307.30 0.5454
307.40 0.5459
307.50 0.5464
307.60 0.5468
307.70 0.5473
307.80 0.5478
307.90 0.5483
308.00 0.5488
308.10 0.5492
308.20 0.5497
308.30 0.5502
308.40 0.5507
308.50 0.5512
308.60 0.5516
308.70 0.5521
308.80 0.5526
308.90 0.5531
309.00 0.5536
309.10 0.554
309.20 0.5545
309.30 0.555
309.40 0.5555
309.50 0.5559
309.60 0.5564
309.70 0.5569
309.80 0.5574
309.90 0.5578
310.00 0.5583
310.10 0.5588
310.20 0.5593
310.30 0.5598
310.40 0.5602
310.50 0.5607
310.60 0.5612
310.70 0.5617
310.80 0.5621
310.90 0.5626
311.00 0.5631
311.10 0.5636
311.20 0.5641
311.30 0.5645
311.40 0.565
311.50 0.5655
311.60 0.5659
311.70 0.5664
311.80 0.5669
311.90 0.5674
312.00 0.5678
312.10 0.5683
312.20 0.5688
312.30 0.5692
312.40 0.5697
312.50 0.5702
312.60 0.5707
312.70 0.5711
312.80 0.5716
312.90 0.5721
313.00 0.5726
313.10 0.573
313.20 0.5735
313.30 0.574
313.40 0.5744
313.50 0.5749
313.60 0.5754
313.70 0.5758
313.80 0.5763
313.90 0.5768
314.00 0.5773
314.10 0.5777
314.20 0.5782
314.30 0.5787
314.40 0.5791
314.50 0.5796
314.60 0.5801
314.70 0.5806
314.80 0.581
314.90 0.5815
315.00 0.582
315.10 0.5824
315.20 0.5829
315.30 0.5834
315.40 0.5838
315.50 0.5843
315.60 0.5848
315.70 0.5852
315.80 0.5857
315.90 0.5862
316.00 0.5866
316.10 0.5871
316.20 0.5876
316.30 0.588
316.40 0.5885
316.50 0.589
316.60 0.5894
316.70 0.5899
316.80 0.5904
316.90 0.5908
317.00 0.5913
317.10 0.5918
317.20 0.5922
317.30 0.5927
317.40 0.5932
317.50 0.5936
317.60 0.5941
317.70 0.5945
317.80 0.595
317.90 0.5955
318.00 0.5959
318.10 0.5964
318.20 0.5969
318.30 0.5973
318.40 0.5978
318.50 0.5982
318.60 0.5987
318.70 0.5992
318.80 0.5996
318.90 0.6001
319.00 0.6006
319.10 0.601
319.20 0.6015
319.30 0.6019
319.40 0.6024
319.50 0.6029
319.60 0.6033
319.70 0.6038
319.80 0.6042
319.90 0.6047
320.00 0.6051
320.10 0.6056
320.20 0.6061
320.30 0.6065
320.40 0.607
320.50 0.6074
320.60 0.6079
320.70 0.6084
320.80 0.6088
320.90 0.6093
321.00 0.6097
321.10 0.6102
321.20 0.6107
321.30 0.6111
321.40 0.6116
321.50 0.612
321.60 0.6125
321.70 0.6129
321.80 0.6134
321.90 0.6138
322.00 0.6143
322.10 0.6148
322.20 0.6152
322.30 0.6157
322.40 0.6161
322.50 0.6166
322.60 0.617
322.70 0.6175
322.80 0.618
322.90 0.6184
323.00 0.6189
323.10 0.6193
323.20 0.6198
323.30 0.6202
323.40 0.6207
323.50 0.6211
323.60 0.6216
323.70 0.622
323.80 0.6225
323.90 0.6229
324.00 0.6234
324.10 0.6238
324.20 0.6243
324.30 0.6247
324.40 0.6252
324.50 0.6256
324.60 0.6261
324.70 0.6265
324.80 0.627
324.90 0.6274
325.00 0.6279
325.10 0.6283
325.20 0.6288
325.30 0.6292
325.40 0.6297
325.50 0.6301
325.60 0.6305
325.70 0.631
325.80 0.6314
325.90 0.6319
326.00 0.6323
326.10 0.6328
326.20 0.6332
326.30 0.6337
326.40 0.6341
326.50 0.6346
326.60 0.635
326.70 0.6355
326.80 0.6359
326.90 0.6364
327.00 0.6368
327.10 0.6373
327.20 0.6377
327.30 0.6381
327.40 0.6386
327.50 0.639
327.60 0.6395
327.70 0.6399
327.80 0.6404
327.90 0.6408
328.00 0.6412
328.10 0.6417
328.20 0.6421
328.30 0.6426
328.40 0.643
328.50 0.6435
328.60 0.6439
328.70 0.6443
328.80 0.6448
328.90 0.6452
329.00 0.6457
329.10 0.6461
329.20 0.6466
329.30 0.647
329.40 0.6474
329.50 0.6479
329.60 0.6483
329.70 0.6487
329.80 0.6492
329.90 0.6496
330.00 0.65
330.10 0.6505
330.20 0.6509
330.30 0.6514
330.40 0.6518
330.50 0.6523
330.60 0.6527
330.70 0.6531
330.80 0.6536
330.90 0.654
331.00 0.6544
331.10 0.6549
331.20 0.6553
331.30 0.6557
331.40 0.6562
331.50 0.6566
331.60 0.657
331.70 0.6575
331.80 0.6579
331.90 0.6583
332.00 0.6588
332.10 0.6592
332.20 0.6596
332.30 0.6601
332.40 0.6605
332.50 0.6609
332.60 0.6614
332.70 0.6618
332.80 0.6622
332.90 0.6627
333.00 0.6631
333.10 0.6635
333.20 0.664
333.30 0.6644
333.40 0.6648
333.50 0.6653
333.60 0.6657
333.70 0.6661
333.80 0.6665
333.90 0.667
334.00 0.6674
334.10 0.6678
334.20 0.6683
334.30 0.6687
334.40 0.6691
334.50 0.6695
334.60 0.67
334.70 0.6704
334.80 0.6708
334.90 0.6713
335.00 0.6717
335.10 0.6721
335.20 0.6725
335.30 0.673
335.40 0.6734
335.50 0.6738
335.60 0.6742
335.70 0.6747
335.80 0.6751
335.90 0.6755
336.00 0.6759
336.10 0.6764
336.20 0.6768
336.30 0.6772
336.40 0.6776
336.50 0.6781
336.60 0.6785
336.70 0.6789
336.80 0.6793
336.90 0.6797
337.00 0.6802
337.10 0.6806
337.20 0.681
337.30 0.6814
337.40 0.6819
337.50 0.6823
337.60 0.6827
337.70 0.6831
337.80 0.6835
337.90 0.6839
338.00 0.6844
338.10 0.6848
338.20 0.6852
338.30 0.6856
338.40 0.686
338.50 0.6865
338.60 0.6869
338.70 0.6873
338.80 0.6877
338.90 0.6881
339.00 0.6885
339.10 0.689
339.20 0.6894
339.30 0.6898
339.40 0.6902
339.50 0.6906
339.60 0.691
339.70 0.6914
339.80 0.6918
339.90 0.6922
340.00 0.6927
340.10 0.6931
340.20 0.6935
340.30 0.6939
340.40 0.6943
340.50 0.6947
340.60 0.6952
340.70 0.6956
340.80 0.696
340.90 0.6964
341.00 0.6968
341.10 0.6972
341.20 0.6976
341.30 0.698
341.40 0.6985
341.50 0.6989
341.60 0.6993
341.70 0.6997
341.80 0.7001
341.90 0.7005
342.00 0.7009
342.10 0.7013
342.20 0.7017
342.30 0.7021
342.40 0.7026
342.50 0.703
342.60 0.7034
342.70 0.7038
342.80 0.7042
342.90 0.7046
343.00 0.705
343.10 0.7054
343.20 0.7058
343.30 0.7062
343.40 0.7066
343.50 0.707
343.60 0.7074
343.70 0.7078
343.80 0.7082
343.90 0.7086
344.00 0.709
344.10 0.7094
344.20 0.7098
344.30 0.7102
344.40 0.7106
344.50 0.711
344.60 0.7114
344.70 0.7119
344.80 0.7123
344.90 0.7127
345.00 0.7131
345.10 0.7134
345.20 0.7138
345.30 0.7142
345.40 0.7146
345.50 0.715
345.60 0.7154
345.70 0.7158
345.80 0.7162
345.90 0.7166
346.00 0.717
346.10 0.7174
346.20 0.7178
346.30 0.7182
346.40 0.7186
346.50 0.719
346.60 0.7194
346.70 0.7198
346.80 0.7202
346.90 0.7206
347.00 0.721
347.10 0.7214
347.20 0.7218
347.30 0.7222
347.40 0.7226
347.50 0.723
347.60 0.7234
347.70 0.7238
347.80 0.7242
347.90 0.7246
348.00 0.725
348.10 0.7254
348.20 0.7257
348.30 0.7261
348.40 0.7265
348.50 0.7269
348.60 0.7273
348.70 0.7277
348.80 0.7281
348.90 0.7285
349.00 0.7289
349.10 0.7293
349.20 0.7297
349.30 0.73
349.40 0.7304
349.50 0.7308
349.60 0.7312
349.70 0.7316
349.80 0.732
349.90 0.7323
350.00 0.7327
350.10 0.7331
350.20 0.7335
350.30 0.7339
350.40 0.7343
350.50 0.7347
350.60 0.7351
350.70 0.7354
350.80 0.7358
350.90 0.7362
351.00 0.7366
351.10 0.737
351.20 0.7374
351.30 0.7378
351.40 0.7381
351.50 0.7385
351.60 0.7389
351.70 0.7393
351.80 0.7397
351.90 0.74
352.00 0.7404
352.10 0.7408
352.20 0.7412
352.30 0.7416
352.40 0.742
352.50 0.7423
352.60 0.7427
352.70 0.7431
352.80 0.7435
352.90 0.7439
353.00 0.7443
353.10 0.7446
353.20 0.745
353.30 0.7454
353.40 0.7458
353.50 0.7461
353.60 0.7465
353.70 0.7469
353.80 0.7473
353.90 0.7477
354.00 0.748
354.10 0.7484
354.20 0.7488
354.30 0.7492
354.40 0.7495
354.50 0.7499
354.60 0.7503
354.70 0.7507
354.80 0.751
354.90 0.7514
355.00 0.7518
355.10 0.7522
355.20 0.7525
355.30 0.7529
355.40 0.7533
355.50 0.7536
355.60 0.754
355.70 0.7544
355.80 0.7547
355.90 0.7551
356.00 0.7555
356.10 0.7558
356.20 0.7562
356.30 0.7566
356.40 0.757
356.50 0.7573
356.60 0.7577
356.70 0.7581
356.80 0.7584
356.90 0.7588
357.00 0.7592
357.10 0.7595
357.20 0.7599
357.30 0.7603
357.40 0.7607
357.50 0.761
357.60 0.7614
357.70 0.7617
357.80 0.7621
357.90 0.7625
358.00 0.7628
358.10 0.7632
358.20 0.7636
358.30 0.7639
358.40 0.7643
358.50 0.7647
358.60 0.765
358.70 0.7654
358.80 0.7658
358.90 0.7661
359.00 0.7665
359.10 0.7669
359.20 0.7672
359.30 0.7676
359.40 0.7679
359.50 0.7683
359.60 0.7687
359.70 0.769
359.80 0.7694
359.90 0.7697
360.00 0.7701
360.10 0.7704
360.20 0.7708
360.30 0.7712
360.40 0.7715
360.50 0.7719
360.60 0.7722
360.70 0.7726
360.80 0.773
360.90 0.7733
361.00 0.7737
361.10 0.774
361.20 0.7744
361.30 0.7747
361.40 0.7751
361.50 0.7755
361.60 0.7758
361.70 0.7762
361.80 0.7765
361.90 0.7769
362.00 0.7772
362.10 0.7776
362.20 0.7779
362.30 0.7783
362.40 0.7786
362.50 0.779
362.60 0.7793
362.70 0.7797
362.80 0.78
362.90 0.7804
363.00 0.7807
363.10 0.7811
363.20 0.7814
363.30 0.7818
363.40 0.7821
363.50 0.7825
363.60 0.7828
363.70 0.7832
363.80 0.7835
363.90 0.7839
364.00 0.7842
364.10 0.7846
364.20 0.7849
364.30 0.7853
364.40 0.7856
364.50 0.7859
364.60 0.7863
364.70 0.7866
364.80 0.787
364.90 0.7873
365.00 0.7877
365.10 0.788
365.20 0.7884
365.30 0.7887
365.40 0.789
365.50 0.7894
365.60 0.7897
365.70 0.7901
365.80 0.7904
365.90 0.7908
366.00 0.7911
366.10 0.7914
366.20 0.7918
366.30 0.7921
366.40 0.7925
366.50 0.7928
366.60 0.7931
366.70 0.7935
366.80 0.7938
366.90 0.7942
367.00 0.7945
367.10 0.7948
367.20 0.7952
367.30 0.7955
367.40 0.7958
367.50 0.7962
367.60 0.7965
367.70 0.7969
367.80 0.7972
367.90 0.7975
368.00 0.7979
368.10 0.7982
368.20 0.7985
368.30 0.7989
368.40 0.7992
368.50 0.7995
368.60 0.7999
368.70 0.8002
368.80 0.8005
368.90 0.8009
369.00 0.8012
369.10 0.8015
369.20 0.8019
369.30 0.8022
369.40 0.8025
369.50 0.8029
369.60 0.8032
369.70 0.8035
369.80 0.8038
369.90 0.8042
370.00 0.8045
370.10 0.8048
370.20 0.8052
370.30 0.8055
370.40 0.8058
370.50 0.8062
370.60 0.8065
370.70 0.8068
370.80 0.8071
370.90 0.8075
371.00 0.8078
371.10 0.8081
371.20 0.8085
371.30 0.8088
371.40 0.8091
371.50 0.8094
371.60 0.8098
371.70 0.8101
371.80 0.8104
371.90 0.8107
372.00 0.8111
372.10 0.8114
372.20 0.8117
372.30 0.812
372.40 0.8124
372.50 0.8127
372.60 0.813
372.70 0.8133
372.80 0.8137
372.90 0.814
373.00 0.8143
373.10 0.8146
373.20 0.8149
373.30 0.8153
373.40 0.8156
373.50 0.8159
373.60 0.8162
373.70 0.8165
373.80 0.8169
373.90 0.8172
374.00 0.8175
374.10 0.8178
374.20 0.8181
374.30 0.8185
374.40 0.8188
374.50 0.8191
374.60 0.8194
374.70 0.8197
374.80 0.82
374.90 0.8204
375.00 0.8207
375.10 0.821
375.20 0.8213
375.30 0.8216
375.40 0.8219
375.50 0.8222
375.60 0.8226
375.70 0.8229
375.80 0.8232
375.90 0.8235
376.00 0.8238
376.10 0.8241
376.20 0.8244
376.30 0.8247
376.40 0.825
376.50 0.8253
376.60 0.8257
376.70 0.826
376.80 0.8263
376.90 0.8266
377.00 0.8269
377.10 0.8272
377.20 0.8275
377.30 0.8278
377.40 0.8281
377.50 0.8284
377.60 0.8287
377.70 0.829
377.80 0.8294
377.90 0.8297
378.00 0.83
378.10 0.8303
378.20 0.8306
378.30 0.8309
378.40 0.8312
378.50 0.8315
378.60 0.8318
378.70 0.8321
378.80 0.8324
378.90 0.8327
379.00 0.833
379.10 0.8333
379.20 0.8336
379.30 0.8339
379.40 0.8342
379.50 0.8345
379.60 0.8348
379.70 0.8351
379.80 0.8354
379.90 0.8357
380.00 0.836
380.10 0.8363
380.20 0.8366
380.30 0.8369
380.40 0.8372
380.50 0.8375
380.60 0.8378
380.70 0.8381
380.80 0.8384
380.90 0.8387
381.00 0.839
381.10 0.8393
381.20 0.8396
381.30 0.8399
381.40 0.8402
381.50 0.8405
381.60 0.8408
381.70 0.8411
381.80 0.8414
381.90 0.8417
382.00 0.842
382.10 0.8423
382.20 0.8426
382.30 0.8428
382.40 0.8431
382.50 0.8434
382.60 0.8437
382.70 0.844
382.80 0.8442
382.90 0.8445
383.00 0.8448
383.10 0.8451
383.20 0.8453
383.30 0.8456
383.40 0.8458
383.50 0.8459
383.60 0.8462
383.70 0.8467
383.80 0.8471
383.90 0.8474
384.00 0.8478
384.10 0.8481
384.20 0.8484
384.30 0.8487
384.40 0.849
384.50 0.8493
384.60 0.8496
384.70 0.8499
384.80 0.8501
384.90 0.8505
385.00 0.8507
385.10 0.851
385.20 0.8513
385.30 0.8516
385.40 0.8519
385.50 0.8522
385.60 0.8525
385.70 0.8528
385.80 0.8531
385.90 0.8533
386.00 0.8536
386.10 0.8539
386.20 0.8542
386.30 0.8545
386.40 0.8548
386.50 0.855
386.60 0.8553
386.70 0.8556
386.80 0.8559
386.90 0.8562
387.00 0.8564
387.10 0.8567
387.20 0.857
387.30 0.8573
387.40 0.8575
387.50 0.8578
387.60 0.8581
387.70 0.8583
387.80 0.8586
387.90 0.8588
388.00 0.859
388.10 0.8593
388.20 0.8595
388.30 0.8597
388.40 0.8598
388.50 0.8599
388.60 0.86
388.70 0.8599
388.80 0.8596
388.90 0.8591
389.00 0.8601
389.10 0.861
389.20 0.8616
389.30 0.8621
389.40 0.8626
389.50 0.863
389.60 0.8634
389.70 0.8637
389.80 0.8641
389.90 0.8644
390.00 0.8647
390.10 0.865
390.20 0.8653
390.30 0.8656
390.40 0.8659
390.50 0.8661
390.60 0.8664
390.70 0.8667
390.80 0.867
390.90 0.8673
391.00 0.8675
391.10 0.8678
391.20 0.8681
391.30 0.8683
391.40 0.8686
391.50 0.8689
391.60 0.8692
391.70 0.8694
391.80 0.8697
391.90 0.87
392.00 0.8702
392.10 0.8705
392.20 0.8708
392.30 0.8711
392.40 0.8713
392.50 0.8716
392.60 0.8718
392.70 0.8721
392.80 0.8724
392.90 0.8726
393.00 0.8729
393.10 0.8732
393.20 0.8734
393.30 0.8737
393.40 0.874
393.50 0.8742
393.60 0.8745
393.70 0.8747
393.80 0.875
393.90 0.8753
394.00 0.8755
394.10 0.8758
394.20 0.876
394.30 0.8763
394.40 0.8765
394.50 0.8768
394.60 0.877
394.70 0.8773
394.80 0.8775
394.90 0.8778
395.00 0.878
395.10 0.8782
395.20 0.8785
395.30 0.8787
395.40 0.8789
395.50 0.8792
395.60 0.8794
395.70 0.8796
395.80 0.8798
395.90 0.8799
396.00 0.8801
396.10 0.8802
396.20 0.8803
396.30 0.8803
396.40 0.8803
396.50 0.8801
396.60 0.8797
396.70 0.8793
396.80 0.8783
396.90 0.8769
397.00 0.8752
397.10 0.8773
397.20 0.8791
397.30 0.8806
397.40 0.8817
397.50 0.8825
397.60 0.8832
397.70 0.8838
397.80 0.8843
397.90 0.8848
398.00 0.8851
398.10 0.8855
398.20 0.8858
398.30 0.8861
398.40 0.8864
398.50 0.8867
398.60 0.887
398.70 0.8873
398.80 0.8876
398.90 0.8878
399.00 0.8881
399.10 0.8884
399.20 0.8886
399.30 0.8889
399.40 0.8891
399.50 0.8894
399.60 0.8897
399.70 0.8899
399.80 0.8902
399.90 0.8904
400.00 0.8906
400.10 0.8909
400.20 0.8911
400.30 0.8914
400.40 0.8916
400.50 0.8919
400.60 0.8921
400.70 0.8924
400.80 0.8926
400.90 0.8929
401.00 0.8931
401.10 0.8934
401.20 0.8936
401.30 0.8938
401.40 0.8941
401.50 0.8943
401.60 0.8946
401.70 0.8948
401.80 0.895
401.90 0.8953
402.00 0.8955
402.10 0.8957
402.20 0.896
402.30 0.8962
402.40 0.8964
402.50 0.8967
402.60 0.8969
402.70 0.8971
402.80 0.8974
402.90 0.8976
403.00 0.8978
403.10 0.8981
403.20 0.8983
403.30 0.8985
403.40 0.8988
403.50 0.899
403.60 0.8992
403.70 0.8995
403.80 0.8997
403.90 0.8999
404.00 0.9002
404.10 0.9004
404.20 0.9006
404.30 0.9008
404.40 0.9011
404.50 0.9013
404.60 0.9015
404.70 0.9018
404.80 0.902
404.90 0.9022
405.00 0.9024
405.10 0.9026
405.20 0.9029
405.30 0.9031
405.40 0.9033
405.50 0.9035
405.60 0.9038
405.70 0.904
405.80 0.9042
405.90 0.9044
406.00 0.9047
406.10 0.9049
406.20 0.9051
406.30 0.9053
406.40 0.9055
406.50 0.9058
406.60 0.906
406.70 0.9062
406.80 0.9064
406.90 0.9066
407.00 0.9068
407.10 0.907
407.20 0.9072
407.30 0.9074
407.40 0.9077
407.50 0.9079
407.60 0.908
407.70 0.9082
407.80 0.9084
407.90 0.9086
408.00 0.9088
408.10 0.909
408.20 0.9092
408.30 0.9094
408.40 0.9095
408.50 0.9097
408.60 0.9098
408.70 0.91
408.80 0.9101
408.90 0.9101
409.00 0.9102
409.10 0.9102
409.20 0.9102
409.30 0.9101
409.40 0.9098
409.50 0.9094
409.60 0.9088
409.70 0.9077
409.80 0.9061
409.90 0.9039
410.00 0.9001
410.10 0.8964
410.20 0.893
410.30 0.8986
410.40 0.9032
410.50 0.9067
410.60 0.9088
410.70 0.9105
410.80 0.9118
410.90 0.9127
411.00 0.9134
411.10 0.9141
411.20 0.9146
411.30 0.915
411.40 0.9154
411.50 0.9157
411.60 0.9161
411.70 0.9164
411.80 0.9166
411.90 0.9169
412.00 0.9172
412.10 0.9174
412.20 0.9177
412.30 0.9179
412.40 0.9182
412.50 0.9184
412.60 0.9186
412.70 0.9189
412.80 0.9191
412.90 0.9193
413.00 0.9195
413.10 0.9197
413.20 0.9199
413.30 0.9202
413.40 0.9204
413.50 0.9206
413.60 0.9208
413.70 0.921
413.80 0.9212
413.90 0.9214
414.00 0.9216
414.10 0.9218
414.20 0.922
414.30 0.9222
414.40 0.9224
414.50 0.9226
414.60 0.9228
414.70 0.923
414.80 0.9233
414.90 0.9235
415.00 0.9237
415.10 0.9239
415.20 0.924
415.30 0.9242
415.40 0.9244
415.50 0.9246
415.60 0.9248
415.70 0.925
415.80 0.9253
415.90 0.9254
416.00 0.9256
416.10 0.9258
416.20 0.926
416.30 0.9262
416.40 0.9264
416.50 0.9266
416.60 0.9268
416.70 0.927
416.80 0.9272
416.90 0.9274
417.00 0.9276
417.10 0.9278
417.20 0.928
417.30 0.9282
417.40 0.9283
417.50 0.9285
417.60 0.9287
417.70 0.9289
417.80 0.9291
417.90 0.9293
418.00 0.9295
418.10 0.9297
418.20 0.9298
418.30 0.93
418.40 0.9302
418.50 0.9304
418.60 0.9306
418.70 0.9308
418.80 0.931
418.90 0.9312
419.00 0.9314
419.10 0.9315
419.20 0.9317
419.30 0.9319
419.40 0.9321
419.50 0.9323
419.60 0.9325
419.70 0.9326
419.80 0.9328
419.90 0.933
420.00 0.9332
420.10 0.9334
420.20 0.9336
420.30 0.9337
420.40 0.9339
420.50 0.9341
420.60 0.9343
420.70 0.9345
420.80 0.9347
420.90 0.9348
421.00 0.935
421.10 0.9352
421.20 0.9354
421.30 0.9356
421.40 0.9357
421.50 0.9359
421.60 0.9361
421.70 0.9363
421.80 0.9365
421.90 0.9366
422.00 0.9368
422.10 0.937
422.20 0.9372
422.30 0.9373
422.40 0.9375
422.50 0.9377
422.60 0.9379
422.70 0.938
422.80 0.9382
422.90 0.9384
423.00 0.9385
423.10 0.9387
423.20 0.9389
423.30 0.9391
423.40 0.9392
423.50 0.9394
423.60 0.9396
423.70 0.9398
423.80 0.9399
423.90 0.9401
424.00 0.9403
424.10 0.9405
424.20 0.9406
424.30 0.9408
424.40 0.941
424.50 0.9412
424.60 0.9413
424.70 0.9415
424.80 0.9417
424.90 0.9418
425.00 0.942
425.10 0.9422
425.20 0.9423
425.30 0.9425
425.40 0.9427
425.50 0.9428
425.60 0.943
425.70 0.9432
425.80 0.9433
425.90 0.9435
426.00 0.9437
426.10 0.9438
426.20 0.944
426.30 0.9441
426.40 0.9443
426.50 0.9445
426.60 0.9446
426.70 0.9448
426.80 0.9449
426.90 0.9451
427.00 0.9453
427.10 0.9454
427.20 0.9456
427.30 0.9458
427.40 0.9459
427.50 0.9461
427.60 0.9462
427.70 0.9464
427.80 0.9466
427.90 0.9467
428.00 0.9469
428.10 0.947
428.20 0.9472
428.30 0.9473
428.40 0.9475
428.50 0.9477
428.60 0.9478
428.70 0.948
428.80 0.9481
428.90 0.9483
429.00 0.9484
429.10 0.9486
429.20 0.9487
429.30 0.9489
429.40 0.949
429.50 0.9492
429.60 0.9493
429.70 0.9495
429.80 0.9496
429.90 0.9498
430.00 0.9499
430.10 0.9501
430.20 0.9502
430.30 0.9503
430.40 0.9505
430.50 0.9506
430.60 0.9508
430.70 0.9509
430.80 0.951
430.90 0.9512
431.00 0.9513
431.10 0.9514
431.20 0.9516
431.30 0.9517
431.40 0.9518
431.50 0.9519
431.60 0.952
431.70 0.9521
431.80 0.9522
431.90 0.9523
432.00 0.9524
432.10 0.9525
432.20 0.9525
432.30 0.9525
432.40 0.9526
432.50 0.9525
432.60 0.9525
432.70 0.9524
432.80 0.9523
432.90 0.9521
433.00 0.9518
433.10 0.9513
433.20 0.9507
433.30 0.9499
433.40 0.9484
433.50 0.9464
433.60 0.9438
433.70 0.9387
433.80 0.9312
433.90 0.9212
434.00 0.9052
434.10 0.9058
434.20 0.9228
434.30 0.9327
434.40 0.9403
434.50 0.9454
434.60 0.9482
434.70 0.9505
434.80 0.9521
434.90 0.9532
435.00 0.9541
435.10 0.9549
435.20 0.9555
435.30 0.956
435.40 0.9564
435.50 0.9567
435.60 0.9571
435.70 0.9573
435.80 0.9576
435.90 0.9579
436.00 0.9581
436.10 0.9583
436.20 0.9585
436.30 0.9587
436.40 0.9589
436.50 0.9591
436.60 0.9593
436.70 0.9595
436.80 0.9596
436.90 0.9598
437.00 0.96
437.10 0.9601
437.20 0.9603
437.30 0.9604
437.40 0.9606
437.50 0.9607
437.60 0.9609
437.70 0.961
437.80 0.9612
437.90 0.9613
438.00 0.9615
438.10 0.9616
438.20 0.9618
438.30 0.9619
438.40 0.9621
438.50 0.9622
438.60 0.9623
438.70 0.9625
438.80 0.9626
438.90 0.9627
439.00 0.9629
439.10 0.963
439.20 0.9631
439.30 0.9633
439.40 0.9634
439.50 0.9635
439.60 0.9637
439.70 0.9638
439.80 0.964
439.90 0.9641
440.00 0.9642
440.10 0.9643
440.20 0.9645
440.30 0.9646
440.40 0.9647
440.50 0.9649
440.60 0.965
440.70 0.9651
440.80 0.9652
440.90 0.9654
441.00 0.9655
441.10 0.9656
441.20 0.9658
441.30 0.9659
441.40 0.966
441.50 0.9662
441.60 0.9663
441.70 0.9664
441.80 0.9665
441.90 0.9666
442.00 0.9668
442.10 0.9669
442.20 0.967
442.30 0.9671
442.40 0.9673
442.50 0.9674
442.60 0.9675
442.70 0.9677
442.80 0.9678
442.90 0.9679
443.00 0.968
443.10 0.9681
443.20 0.9683
443.30 0.9684
443.40 0.9685
443.50 0.9686
443.60 0.9687
443.70 0.9688
443.80 0.969
443.90 0.9691
444.00 0.9692
444.10 0.9693
444.20 0.9694
444.30 0.9696
444.40 0.9697
444.50 0.9698
444.60 0.9699
444.70 0.97
444.80 0.9701
444.90 0.9703
445.00 0.9704
445.10 0.9705
445.20 0.9706
445.30 0.9707
445.40 0.9708
445.50 0.971
445.60 0.9711
445.70 0.9712
445.80 0.9713
445.90 0.9714
446.00 0.9715
446.10 0.9716
446.20 0.9718
446.30 0.9719
446.40 0.972
446.50 0.9721
446.60 0.9722
446.70 0.9723
446.80 0.9724
446.90 0.9725
447.00 0.9726
447.10 0.9728
447.20 0.9729
447.30 0.973
447.40 0.9731
447.50 0.9732
447.60 0.9733
447.70 0.9734
447.80 0.9735
447.90 0.9736
448.00 0.9738
448.10 0.9739
448.20 0.974
448.30 0.9741
448.40 0.9742
448.50 0.9743
448.60 0.9744
448.70 0.9745
448.80 0.9746
448.90 0.9747
449.00 0.9748
449.10 0.9749
449.20 0.975
449.30 0.9751
449.40 0.9753
449.50 0.9753
449.60 0.9755
449.70 0.9756
449.80 0.9757
449.90 0.9758
450.00 0.9759
450.10 0.976
450.20 0.9761
450.30 0.9762
450.40 0.9763
450.50 0.9764
450.60 0.9765
450.70 0.9766
450.80 0.9767
450.90 0.9768
451.00 0.9769
451.10 0.977
451.20 0.9771
451.30 0.9772
451.40 0.9773
451.50 0.9774
451.60 0.9775
451.70 0.9776
451.80 0.9777
451.90 0.9778
452.00 0.9779
452.10 0.978
452.20 0.9781
452.30 0.9782
452.40 0.9783
452.50 0.9784
452.60 0.9785
452.70 0.9786
452.80 0.9787
452.90 0.9788
453.00 0.9789
453.10 0.979
453.20 0.9791
453.30 0.9792
453.40 0.9793
453.50 0.9794
453.60 0.9795
453.70 0.9796
453.80 0.9796
453.90 0.9797
454.00 0.9798
454.10 0.9799
454.20 0.98
454.30 0.9801
454.40 0.9802
454.50 0.9803
454.60 0.9804
454.70 0.9805
454.80 0.9806
454.90 0.9807
455.00 0.9808
455.10 0.9809
455.20 0.9809
455.30 0.981
455.40 0.9811
455.50 0.9812
455.60 0.9813
455.70 0.9814
455.80 0.9815
455.90 0.9816
456.00 0.9817
456.10 0.9817
456.20 0.9818
456.30 0.9819
456.40 0.982
456.50 0.9821
456.60 0.9822
456.70 0.9823
456.80 0.9824
456.90 0.9824
457.00 0.9825
457.10 0.9826
457.20 0.9827
457.30 0.9828
457.40 0.9829
457.50 0.983
457.60 0.9831
457.70 0.9831
457.80 0.9832
457.90 0.9833
458.00 0.9834
458.10 0.9835
458.20 0.9836
458.30 0.9836
458.40 0.9837
458.50 0.9838
458.60 0.9839
458.70 0.984
458.80 0.9841
458.90 0.9841
459.00 0.9842
459.10 0.9843
459.20 0.9844
459.30 0.9845
459.40 0.9845
459.50 0.9846
459.60 0.9847
459.70 0.9848
459.80 0.9849
459.90 0.9849
460.00 0.985
460.10 0.9851
460.20 0.9852
460.30 0.9853
460.40 0.9853
460.50 0.9854
460.60 0.9855
460.70 0.9856
460.80 0.9857
460.90 0.9857
461.00 0.9858
461.10 0.9859
461.20 0.986
461.30 0.9861
461.40 0.9861
461.50 0.9862
461.60 0.9863
461.70 0.9864
461.80 0.9864
461.90 0.9865
462.00 0.9866
462.10 0.9867
462.20 0.9867
462.30 0.9868
462.40 0.9869
462.50 0.9869
462.60 0.987
462.70 0.9871
462.80 0.9872
462.90 0.9872
463.00 0.9873
463.10 0.9874
463.20 0.9875
463.30 0.9875
463.40 0.9876
463.50 0.9877
463.60 0.9878
463.70 0.9878
463.80 0.9879
463.90 0.988
464.00 0.988
464.10 0.9881
464.20 0.9882
464.30 0.9882
464.40 0.9883
464.50 0.9884
464.60 0.9884
464.70 0.9885
464.80 0.9886
464.90 0.9887
465.00 0.9887
465.10 0.9888
465.20 0.9889
465.30 0.9889
465.40 0.989
465.50 0.9891
465.60 0.9891
465.70 0.9892
465.80 0.9893
465.90 0.9893
466.00 0.9894
466.10 0.9894
466.20 0.9895
466.30 0.9896
466.40 0.9896
466.50 0.9897
466.60 0.9898
466.70 0.9898
466.80 0.9899
466.90 0.99
467.00 0.99
467.10 0.9901
467.20 0.9902
467.30 0.9902
467.40 0.9903
467.50 0.9904
467.60 0.9904
467.70 0.9905
467.80 0.9905
467.90 0.9906
468.00 0.9907
468.10 0.9907
468.20 0.9908
468.30 0.9909
468.40 0.9909
468.50 0.991
468.60 0.991
468.70 0.9911
468.80 0.9911
468.90 0.9912
469.00 0.9913
469.10 0.9913
469.20 0.9914
469.30 0.9914
469.40 0.9915
469.50 0.9916
469.60 0.9916
469.70 0.9917
469.80 0.9917
469.90 0.9918
470.00 0.9919
470.10 0.9919
470.20 0.992
470.30 0.992
470.40 0.9921
470.50 0.9921
470.60 0.9922
470.70 0.9922
470.80 0.9923
470.90 0.9924
471.00 0.9924
471.10 0.9925
471.20 0.9925
471.30 0.9926
471.40 0.9926
471.50 0.9927
471.60 0.9927
471.70 0.9928
471.80 0.9928
471.90 0.9929
472.00 0.9929
472.10 0.993
472.20 0.993
472.30 0.9931
472.40 0.9931
472.50 0.9932
472.60 0.9932
472.70 0.9933
472.80 0.9933
472.90 0.9934
473.00 0.9935
473.10 0.9935
473.20 0.9936
473.30 0.9936
473.40 0.9937
473.50 0.9937
473.60 0.9938
473.70 0.9938
473.80 0.9939
473.90 0.9939
474.00 0.9939
474.10 0.994
474.20 0.994
474.30 0.9941
474.40 0.9941
474.50 0.9942
474.60 0.9942
474.70 0.9943
474.80 0.9943
474.90 0.9944
475.00 0.9944
475.10 0.9945
475.20 0.9945
475.30 0.9945
475.40 0.9946
475.50 0.9946
475.60 0.9947
475.70 0.9947
475.80 0.9948
475.90 0.9948
476.00 0.9949
476.10 0.9949
476.20 0.9949
476.30 0.995
476.40 0.995
476.50 0.9951
476.60 0.9951
476.70 0.9951
476.80 0.9952
476.90 0.9952
477.00 0.9953
477.10 0.9953
477.20 0.9954
477.30 0.9954
477.40 0.9954
477.50 0.9955
477.60 0.9955
477.70 0.9955
477.80 0.9956
477.90 0.9956
478.00 0.9957
478.10 0.9957
478.20 0.9957
478.30 0.9958
478.40 0.9958
478.50 0.9959
478.60 0.9959
478.70 0.9959
478.80 0.996
478.90 0.996
479.00 0.996
479.10 0.9961
479.20 0.9961
479.30 0.9961
479.40 0.9962
479.50 0.9962
479.60 0.9962
479.70 0.9962
479.80 0.9963
479.90 0.9963
480.00 0.9963
480.10 0.9964
480.20 0.9964
480.30 0.9964
480.40 0.9964
480.50 0.9965
480.60 0.9965
480.70 0.9965
480.80 0.9965
480.90 0.9966
481.00 0.9966
481.10 0.9966
481.20 0.9966
481.30 0.9967
481.40 0.9967
481.50 0.9967
481.60 0.9967
481.70 0.9967
481.80 0.9967
481.90 0.9967
482.00 0.9968
482.10 0.9968
482.20 0.9968
482.30 0.9968
482.40 0.9967
482.50 0.9967
482.60 0.9967
482.70 0.9967
482.80 0.9967
482.90 0.9967
483.00 0.9967
483.10 0.9967
483.20 0.9966
483.30 0.9965
483.40 0.9965
483.50 0.9964
483.60 0.9963
483.70 0.9962
483.80 0.9961
483.90 0.996
484.00 0.996
484.10 0.9959
484.20 0.9957
484.30 0.9954
484.40 0.9951
484.50 0.9948
484.60 0.9946
484.70 0.9939
484.80 0.9932
484.90 0.9924
485.00 0.9916
485.10 0.9909
485.20 0.9894
485.30 0.9876
485.40 0.9848
485.50 0.9814
485.60 0.9756
485.70 0.9686
485.80 0.955
485.90 0.9383
486.00 0.9118
486.10 0.8685
486.20 0.8854
486.30 0.9232
486.40 0.9439
486.50 0.961
486.60 0.9713
486.70 0.9784
486.80 0.983
486.90 0.9864
487.00 0.9887
487.10 0.9906
487.20 0.9917
487.30 0.9925
487.40 0.9934
487.50 0.9942
487.60 0.995
487.70 0.9955
487.80 0.9958
487.90 0.9961
488.00 0.9964
488.10 0.9968
488.20 0.997
488.30 0.9971
488.40 0.9972
488.50 0.9974
488.60 0.9975
488.70 0.9976
488.80 0.9978
488.90 0.9979
489.00 0.998
489.10 0.9981
489.20 0.9982
489.30 0.9983
489.40 0.9983
489.50 0.9984
489.60 0.9985
489.70 0.9985
489.80 0.9986
489.90 0.9986
490.00 0.9987
490.10 0.9988
490.20 0.9988
490.30 0.9988
490.40 0.9989
490.50 0.9989
490.60 0.9989
490.70 0.999
490.80 0.999
490.90 0.999
491.00 0.9991
491.10 0.9991
491.20 0.9991
491.30 0.9991
491.40 0.9992
491.50 0.9992
491.60 0.9992
491.70 0.9992
491.80 0.9993
491.90 0.9993
492.00 0.9993
492.10 0.9993
492.20 0.9994
492.30 0.9994
492.40 0.9994
492.50 0.9994
492.60 0.9994
492.70 0.9995
492.80 0.9995
492.90 0.9995
493.00 0.9995
493.10 0.9995
493.20 0.9995
493.30 0.9996
493.40 0.9996
493.50 0.9996
493.60 0.9996
493.70 0.9996
493.80 0.9996
493.90 0.9996
494.00 0.9997
494.10 0.9997
494.20 0.9997
494.30 0.9997
494.40 0.9997
494.50 0.9997
494.60 0.9997
494.70 0.9997
494.80 0.9998
494.90 0.9998
495.00 0.9998
495.10 0.9998
495.20 0.9998
495.30 0.9998
495.40 0.9998
495.50 0.9998
495.60 0.9998
495.70 0.9998
495.80 0.9998
495.90 0.9999
496.00 0.9999
496.10 0.9999
496.20 0.9999
496.30 0.9999
496.40 0.9999
496.50 0.9999
496.60 0.9999
496.70 0.9999
496.80 0.9999
496.90 0.9999
497.00 0.9999
497.10 0.9999
497.20 1
497.30 1
497.40 1
497.50 1
497.60 1
497.70 1
497.80 1
497.90 1
498.00 1
498.10 1
498.20 1
498.30 1
498.40 1
498.50 1
498.60 1
498.70 1
498.80 1
498.90 1
499.00 1
499.10 1
499.20 1
499.30 1
499.40 1
499.50 1
499.60 1
499.70 1
499.80 1
499.90 1
500.00 1
500.10 1
500.20 1
500.30 1
500.40 1
500.50 1
500.60 1
500.70 1
500.80 1
500.90 1
501.00 1
501.10 1
501.20 1
501.30 1
501.40 1
501.50 1
501.60 1
501.70 1
501.80 1
501.90 1
502.00 1
502.10 1
502.20 1
502.30 1
502.40 0.9999
502.50 0.9999
502.60 0.9999
502.70 0.9999
502.80 0.9999
502.90 0.9999
503.00 0.9999
503.10 0.9999
503.20 0.9999
503.30 0.9999
503.40 0.9999
503.50 0.9999
503.60 0.9999
503.70 0.9999
503.80 0.9999
503.90 0.9999
504.00 0.9999
504.10 0.9999
504.20 0.9999
504.30 0.9998
504.40 0.9998
504.50 0.9998
504.60 0.9998
504.70 0.9998
504.80 0.9998
504.90 0.9998
505.00 0.9998
505.10 0.9998
505.20 0.9998
505.30 0.9998
505.40 0.9997
505.50 0.9997
505.60 0.9997
505.70 0.9997
505.80 0.9997
505.90 0.9997
506.00 0.9997
506.10 0.9997
506.20 0.9997
506.30 0.9996
506.40 0.9996
506.50 0.9996
506.60 0.9996
506.70 0.9996
506.80 0.9996
506.90 0.9996
507.00 0.9996
507.10 0.9995
507.20 0.9995
507.30 0.9995
507.40 0.9995
507.50 0.9995
507.60 0.9995
507.70 0.9995
507.80 0.9995
507.90 0.9994
508.00 0.9994
508.10 0.9994
508.20 0.9994
508.30 0.9994
508.40 0.9994
508.50 0.9994
508.60 0.9993
508.70 0.9993
508.80 0.9993
508.90 0.9993
509.00 0.9993
509.10 0.9993
509.20 0.9992
509.30 0.9992
509.40 0.9992
509.50 0.9992
509.60 0.9992
509.70 0.9992
509.80 0.9991
509.90 0.9991
510.00 0.9991
510.10 0.9991
510.20 0.9991
510.30 0.9991
510.40 0.999
510.50 0.999
510.60 0.999
510.70 0.999
510.80 0.999
510.90 0.9989
511.00 0.9989
511.10 0.9989
511.20 0.9989
511.30 0.9989
511.40 0.9988
511.50 0.9988
511.60 0.9988
511.70 0.9988
511.80 0.9988
511.90 0.9988
512.00 0.9987
512.10 0.9987
512.20 0.9987
512.30 0.9987
512.40 0.9987
512.50 0.9986
512.60 0.9986
512.70 0.9986
512.80 0.9986
512.90 0.9985
513.00 0.9985
513.10 0.9985
513.20 0.9985
513.30 0.9985
513.40 0.9984
513.50 0.9984
513.60 0.9984
513.70 0.9984
513.80 0.9983
513.90 0.9983
514.00 0.9983
514.10 0.9983
514.20 0.9982
514.30 0.9982
514.40 0.9982
514.50 0.9982
514.60 0.9982
514.70 0.9981
514.80 0.9981
514.90 0.9981
515.00 0.9981
515.10 0.998
515.20 0.998
515.30 0.998
515.40 0.998
515.50 0.9979
515.60 0.9979
515.70 0.9979
515.80 0.9978
515.90 0.9978
516.00 0.9978
516.10 0.9978
516.20 0.9977
516.30 0.9977
516.40 0.9977
516.50 0.9977
516.60 0.9976
516.70 0.9976
516.80 0.9976
516.90 0.9975
517.00 0.9975
517.10 0.9975
517.20 0.9975
517.30 0.9974
517.40 0.9974
517.50 0.9974
517.60 0.9973
517.70 0.9973
517.80 0.9973
517.90 0.9973
518.00 0.9972
518.10 0.9972
518.20 0.9972
518.30 0.9971
518.40 0.9971
518.50 0.9971
518.60 0.997
518.70 0.997
518.80 0.997
518.90 0.997
519.00 0.9969
519.10 0.9969
519.20 0.9969
519.30 0.9968
519.40 0.9968
519.50 0.9968
519.60 0.9967
519.70 0.9967
519.80 0.9967
519.90 0.9966
520.00 0.9966
520.10 0.9966
520.20 0.9965
520.30 0.9965
520.40 0.9965
520.50 0.9964
520.60 0.9964
520.70 0.9964
520.80 0.9963
520.90 0.9963
521.00 0.9963
521.10 0.9962
521.20 0.9962
521.30 0.9962
521.40 0.9961
521.50 0.9961
521.60 0.9961
521.70 0.996
521.80 0.996
521.90 0.996
522.00 0.9959
522.10 0.9959
522.20 0.9959
522.30 0.9958
522.40 0.9958
522.50 0.9958
522.60 0.9957
522.70 0.9957
522.80 0.9956
522.90 0.9956
523.00 0.9956
523.10 0.9955
523.20 0.9955
523.30 0.9955
523.40 0.9954
523.50 0.9954
523.60 0.9953
523.70 0.9953
523.80 0.9953
523.90 0.9952
524.00 0.9952
524.10 0.9951
524.20 0.9951
524.30 0.9951
524.40 0.995
524.50 0.995
524.60 0.9949
524.70 0.9949
524.80 0.9949
524.90 0.9948
525.00 0.9948
525.10 0.9947
525.20 0.9947
525.30 0.9947
525.40 0.9946
525.50 0.9946
525.60 0.9945
525.70 0.9945
525.80 0.9945
525.90 0.9944
526.00 0.9944
526.10 0.9943
526.20 0.9943
526.30 0.9943
526.40 0.9942
526.50 0.9942
526.60 0.9941
526.70 0.9941
526.80 0.9941
526.90 0.994
527.00 0.994
527.10 0.9939
527.20 0.9939
527.30 0.9939
527.40 0.9938
527.50 0.9938
527.60 0.9937
527.70 0.9937
527.80 0.9936
527.90 0.9936
528.00 0.9936
528.10 0.9935
528.20 0.9935
528.30 0.9934
528.40 0.9934
528.50 0.9933
528.60 0.9933
528.70 0.9932
528.80 0.9932
528.90 0.9931
529.00 0.9931
529.10 0.9931
529.20 0.993
529.30 0.993
529.40 0.9929
529.50 0.9929
529.60 0.9928
529.70 0.9928
529.80 0.9927
529.90 0.9927
530.00 0.9926
530.10 0.9926
530.20 0.9926
530.30 0.9925
530.40 0.9925
530.50 0.9924
530.60 0.9924
530.70 0.9923
530.80 0.9923
530.90 0.9922
531.00 0.9922
531.10 0.9921
531.20 0.9921
531.30 0.992
531.40 0.992
531.50 0.9919
531.60 0.9919
531.70 0.9918
531.80 0.9918
531.90 0.9917
532.00 0.9917
532.10 0.9916
532.20 0.9916
532.30 0.9915
532.40 0.9915
532.50 0.9914
532.60 0.9914
532.70 0.9913
532.80 0.9913
532.90 0.9912
533.00 0.9912
533.10 0.9911
533.20 0.9911
533.30 0.991
533.40 0.991
533.50 0.9909
533.60 0.9909
533.70 0.9908
533.80 0.9908
533.90 0.9907
534.00 0.9907
534.10 0.9906
534.20 0.9906
534.30 0.9905
534.40 0.9905
534.50 0.9904
534.60 0.9904
534.70 0.9903
534.80 0.9903
534.90 0.9902
535.00 0.9902
535.10 0.9901
535.20 0.9901
535.30 0.99
535.40 0.9899
535.50 0.9899
535.60 0.9898
535.70 0.9898
535.80 0.9897
535.90 0.9897
536.00 0.9896
536.10 0.9896
536.20 0.9895
536.30 0.9895
536.40 0.9894
536.50 0.9893
536.60 0.9893
536.70 0.9892
536.80 0.9892
536.90 0.9891
537.00 0.9891
537.10 0.989
537.20 0.989
537.30 0.9889
537.40 0.9889
537.50 0.9888
537.60 0.9887
537.70 0.9887
537.80 0.9886
537.90 0.9886
538.00 0.9885
538.10 0.9885
538.20 0.9884
538.30 0.9883
538.40 0.9883
538.50 0.9882
538.60 0.9882
538.70 0.9881
538.80 0.9881
538.90 0.988
539.00 0.9879
539.10 0.9879
539.20 0.9878
539.30 0.9878
539.40 0.9877
539.50 0.9876
539.60 0.9876
539.70 0.9875
539.80 0.9875
539.90 0.9874
540.00 0.9873
540.10 0.9873
540.20 0.9872
540.30 0.9872
540.40 0.9871
540.50 0.9871
540.60 0.987
540.70 0.9869
540.80 0.9869
540.90 0.9868
541.00 0.9868
541.10 0.9867
541.20 0.9866
541.30 0.9866
541.40 0.9865
541.50 0.9865
541.60 0.9864
541.70 0.9863
541.80 0.9863
541.90 0.9862
542.00 0.9861
542.10 0.9861
542.20 0.986
542.30 0.986
542.40 0.9859
542.50 0.9858
542.60 0.9858
542.70 0.9857
542.80 0.9856
542.90 0.9856
543.00 0.9855
543.10 0.9855
543.20 0.9854
543.30 0.9853
543.40 0.9853
543.50 0.9852
543.60 0.9851
543.70 0.9851
543.80 0.985
543.90 0.9849
544.00 0.9849
544.10 0.9848
544.20 0.9848
544.30 0.9847
544.40 0.9846
544.50 0.9846
544.60 0.9845
544.70 0.9844
544.80 0.9844
544.90 0.9843
545.00 0.9842
545.10 0.9842
545.20 0.9841
545.30 0.984
545.40 0.984
545.50 0.9839
545.60 0.9839
545.70 0.9838
545.80 0.9837
545.90 0.9837
546.00 0.9836
546.10 0.9835
546.20 0.9835
546.30 0.9834
546.40 0.9833
546.50 0.9833
546.60 0.9832
546.70 0.9831
546.80 0.983
546.90 0.983
547.00 0.9829
547.10 0.9828
547.20 0.9828
547.30 0.9827
547.40 0.9826
547.50 0.9826
547.60 0.9825
547.70 0.9824
547.80 0.9824
547.90 0.9823
548.00 0.9822
548.10 0.9822
548.20 0.9821
548.30 0.982
548.40 0.982
548.50 0.9819
548.60 0.9818
548.70 0.9818
548.80 0.9817
548.90 0.9816
549.00 0.9816
549.10 0.9815
549.20 0.9814
549.30 0.9813
549.40 0.9813
549.50 0.9812
549.60 0.9811
549.70 0.9811
549.80 0.981
549.90 0.9809
550.00 0.9808
550.10 0.9808
550.20 0.9807
550.30 0.9806
550.40 0.9806
550.50 0.9805
550.60 0.9804
550.70 0.9803
550.80 0.9803
550.90 0.9802
551.00 0.9801
551.10 0.9801
551.20 0.98
551.30 0.9799
551.40 0.9798
551.50 0.9798
551.60 0.9797
551.70 0.9796
551.80 0.9795
551.90 0.9795
552.00 0.9794
552.10 0.9793
552.20 0.9793
552.30 0.9792
552.40 0.9791
552.50 0.979
552.60 0.979
552.70 0.9789
552.80 0.9788
552.90 0.9788
553.00 0.9787
553.10 0.9786
553.20 0.9785
553.30 0.9785
553.40 0.9784
553.50 0.9783
553.60 0.9782
553.70 0.9782
553.80 0.9781
553.90 0.978
554.00 0.9779
554.10 0.9779
554.20 0.9778
554.30 0.9777
554.40 0.9776
554.50 0.9776
554.60 0.9775
554.70 0.9774
554.80 0.9773
554.90 0.9773
555.00 0.9772
555.10 0.9771
555.20 0.977
555.30 0.9769
555.40 0.9769
555.50 0.9768
555.60 0.9767
555.70 0.9766
555.80 0.9766
555.90 0.9765
556.00 0.9764
556.10 0.9763
556.20 0.9763
556.30 0.9762
556.40 0.9761
556.50 0.976
556.60 0.976
556.70 0.9759
556.80 0.9758
556.90 0.9757
557.00 0.9756
557.10 0.9756
557.20 0.9755
557.30 0.9754
557.40 0.9753
557.50 0.9752
557.60 0.9752
557.70 0.9751
557.80 0.975
557.90 0.9749
558.00 0.9749
558.10 0.9748
558.20 0.9747
558.30 0.9746
558.40 0.9745
558.50 0.9745
558.60 0.9744
558.70 0.9743
558.80 0.9742
558.90 0.9741
559.00 0.9741
559.10 0.974
559.20 0.9739
559.30 0.9738
559.40 0.9737
559.50 0.9737
559.60 0.9736
559.70 0.9735
559.80 0.9734
559.90 0.9733
560.00 0.9733
560.10 0.9732
560.20 0.9731
560.30 0.973
560.40 0.9729
560.50 0.9729
560.60 0.9728
560.70 0.9727
560.80 0.9726
560.90 0.9725
561.00 0.9724
561.10 0.9724
561.20 0.9723
561.30 0.9722
561.40 0.9721
561.50 0.972
561.60 0.9719
561.70 0.9719
561.80 0.9718
561.90 0.9717
562.00 0.9716
562.10 0.9715
562.20 0.9714
562.30 0.9714
562.40 0.9713
562.50 0.9712
562.60 0.9711
562.70 0.971
562.80 0.971
562.90 0.9709
563.00 0.9708
563.10 0.9707
563.20 0.9706
563.30 0.9705
563.40 0.9705
563.50 0.9704
563.60 0.9703
563.70 0.9702
563.80 0.9701
563.90 0.97
564.00 0.9699
564.10 0.9699
564.20 0.9698
564.30 0.9697
564.40 0.9696
564.50 0.9695
564.60 0.9694
564.70 0.9693
564.80 0.9693
564.90 0.9692
565.00 0.9691
565.10 0.969
565.20 0.9689
565.30 0.9688
565.40 0.9687
565.50 0.9687
565.60 0.9686
565.70 0.9685
565.80 0.9684
565.90 0.9683
566.00 0.9682
566.10 0.9681
566.20 0.9681
566.30 0.968
566.40 0.9679
566.50 0.9678
566.60 0.9677
566.70 0.9676
566.80 0.9675
566.90 0.9674
567.00 0.9674
567.10 0.9673
567.20 0.9672
567.30 0.9671
567.40 0.967
567.50 0.9669
567.60 0.9668
567.70 0.9667
567.80 0.9666
567.90 0.9666
568.00 0.9665
568.10 0.9664
568.20 0.9663
568.30 0.9662
568.40 0.9661
568.50 0.966
568.60 0.9659
568.70 0.9658
568.80 0.9658
568.90 0.9657
569.00 0.9656
569.10 0.9655
569.20 0.9654
569.30 0.9653
569.40 0.9652
569.50 0.9651
569.60 0.965
569.70 0.965
569.80 0.9649
569.90 0.9648
570.00 0.9647
570.10 0.9646
570.20 0.9645
570.30 0.9644
570.40 0.9643
570.50 0.9642
570.60 0.9641
570.70 0.9641
570.80 0.964
570.90 0.9639
571.00 0.9638
571.10 0.9637
571.20 0.9636
571.30 0.9635
571.40 0.9634
571.50 0.9633
571.60 0.9632
571.70 0.9631
571.80 0.963
571.90 0.963
572.00 0.9629
572.10 0.9628
572.20 0.9627
572.30 0.9626
572.40 0.9625
572.50 0.9624
572.60 0.9623
572.70 0.9622
572.80 0.9621
572.90 0.962
573.00 0.9619
573.10 0.9619
573.20 0.9618
573.30 0.9617
573.40 0.9616
573.50 0.9615
573.60 0.9614
573.70 0.9613
573.80 0.9612
573.90 0.9611
574.00 0.961
574.10 0.9609
574.20 0.9608
574.30 0.9607
574.40 0.9606
574.50 0.9605
574.60 0.9604
574.70 0.9604
574.80 0.9603
574.90 0.9602
575.00 0.9601
575.10 0.96
575.20 0.9599
575.30 0.9598
575.40 0.9597
575.50 0.9596
575.60 0.9595
575.70 0.9594
575.80 0.9593
575.90 0.9592
576.00 0.9591
576.10 0.959
576.20 0.9589
576.30 0.9588
576.40 0.9587
576.50 0.9586
576.60 0.9586
576.70 0.9585
576.80 0.9584
576.90 0.9583
577.00 0.9582
577.10 0.9581
577.20 0.958
577.30 0.9579
577.40 0.9578
577.50 0.9577
577.60 0.9576
577.70 0.9575
577.80 0.9574
577.90 0.9573
578.00 0.9572
578.10 0.9571
578.20 0.957
578.30 0.9569
578.40 0.9568
578.50 0.9567
578.60 0.9566
578.70 0.9565
578.80 0.9564
578.90 0.9563
579.00 0.9562
579.10 0.9561
579.20 0.956
579.30 0.9559
579.40 0.9558
579.50 0.9557
579.60 0.9556
579.70 0.9555
579.80 0.9554
579.90 0.9553
580.00 0.9552
580.10 0.9552
580.20 0.9551
580.30 0.955
580.40 0.9549
580.50 0.9548
580.60 0.9547
580.70 0.9546
580.80 0.9545
580.90 0.9544
581.00 0.9543
581.10 0.9542
581.20 0.9541
581.30 0.954
581.40 0.9539
581.50 0.9538
581.60 0.9537
581.70 0.9536
581.80 0.9535
581.90 0.9534
582.00 0.9533
582.10 0.9532
582.20 0.9531
582.30 0.953
582.40 0.9529
582.50 0.9528
582.60 0.9527
582.70 0.9526
582.80 0.9525
582.90 0.9524
583.00 0.9523
583.10 0.9522
583.20 0.9521
583.30 0.952
583.40 0.9519
583.50 0.9517
583.60 0.9516
583.70 0.9515
583.80 0.9514
583.90 0.9513
584.00 0.9512
584.10 0.9511
584.20 0.951
584.30 0.9509
584.40 0.9508
584.50 0.9507
584.60 0.9506
584.70 0.9505
584.80 0.9504
584.90 0.9503
585.00 0.9502
585.10 0.9501
585.20 0.95
585.30 0.9499
585.40 0.9498
585.50 0.9497
585.60 0.9496
585.70 0.9495
585.80 0.9494
585.90 0.9493
586.00 0.9492
586.10 0.9491
586.20 0.949
586.30 0.9489
586.40 0.9488
586.50 0.9487
586.60 0.9486
586.70 0.9485
586.80 0.9484
586.90 0.9483
587.00 0.9482
587.10 0.9481
587.20 0.948
587.30 0.9479
587.40 0.9478
587.50 0.9476
587.60 0.9475
587.70 0.9474
587.80 0.9473
587.90 0.9472
588.00 0.9471
588.10 0.947
588.20 0.9469
588.30 0.9468
588.40 0.9467
588.50 0.9466
588.60 0.9465
588.70 0.9464
588.80 0.9463
588.90 0.9462
589.00 0.9461
589.10 0.946
589.20 0.9459
589.30 0.9458
589.40 0.9457
589.50 0.9456
589.60 0.9454
589.70 0.9453
589.80 0.9452
589.90 0.9451
590.00 0.945
590.10 0.9449
590.20 0.9448
590.30 0.9447
590.40 0.9446
590.50 0.9445
590.60 0.9444
590.70 0.9443
590.80 0.9442
590.90 0.9441
591.00 0.944
591.10 0.9439
591.20 0.9437
591.30 0.9436
591.40 0.9435
591.50 0.9434
591.60 0.9433
591.70 0.9432
591.80 0.9431
591.90 0.943
592.00 0.9429
592.10 0.9428
592.20 0.9427
592.30 0.9426
592.40 0.9425
592.50 0.9424
592.60 0.9423
592.70 0.9421
592.80 0.942
592.90 0.9419
593.00 0.9418
593.10 0.9417
593.20 0.9416
593.30 0.9415
593.40 0.9414
593.50 0.9413
593.60 0.9412
593.70 0.9411
593.80 0.941
593.90 0.9409
594.00 0.9407
594.10 0.9406
594.20 0.9405
594.30 0.9404
594.40 0.9403
594.50 0.9402
594.60 0.9401
594.70 0.94
594.80 0.9399
594.90 0.9398
595.00 0.9397
595.10 0.9395
595.20 0.9394
595.30 0.9393
595.40 0.9392
595.50 0.9391
595.60 0.939
595.70 0.9389
595.80 0.9388
595.90 0.9387
596.00 0.9386
596.10 0.9384
596.20 0.9383
596.30 0.9382
596.40 0.9381
596.50 0.938
596.60 0.9379
596.70 0.9378
596.80 0.9377
596.90 0.9376
597.00 0.9375
597.10 0.9373
597.20 0.9372
597.30 0.9371
597.40 0.937
597.50 0.9369
597.60 0.9368
597.70 0.9367
597.80 0.9366
597.90 0.9365
598.00 0.9363
598.10 0.9362
598.20 0.9361
598.30 0.936
598.40 0.9359
598.50 0.9358
598.60 0.9357
598.70 0.9356
598.80 0.9355
598.90 0.9353
599.00 0.9352
599.10 0.9351
599.20 0.935
599.30 0.9349
599.40 0.9348
599.50 0.9347
599.60 0.9346
599.70 0.9344
599.80 0.9343
599.90 0.9342
600.00 0.9341
600.10 0.934
600.20 0.9339
600.30 0.9338
600.40 0.9337
600.50 0.9335
600.60 0.9334
600.70 0.9333
600.80 0.9332
600.90 0.9331
601.00 0.933
601.10 0.9329
601.20 0.9328
601.30 0.9326
601.40 0.9325
601.50 0.9324
601.60 0.9323
601.70 0.9322
601.80 0.9321
601.90 0.932
602.00 0.9318
602.10 0.9317
602.20 0.9316
602.30 0.9315
602.40 0.9314
602.50 0.9313
602.60 0.9312
602.70 0.9311
602.80 0.9309
602.90 0.9308
603.00 0.9307
603.10 0.9306
603.20 0.9305
603.30 0.9304
603.40 0.9302
603.50 0.9301
603.60 0.93
603.70 0.9299
603.80 0.9298
603.90 0.9297
604.00 0.9296
604.10 0.9294
604.20 0.9293
604.30 0.9292
604.40 0.9291
604.50 0.929
604.60 0.9289
604.70 0.9288
604.80 0.9286
604.90 0.9285
605.00 0.9284
605.10 0.9283
605.20 0.9282
605.30 0.9281
605.40 0.928
605.50 0.9278
605.60 0.9277
605.70 0.9276
605.80 0.9275
605.90 0.9274
606.00 0.9273
606.10 0.9271
606.20 0.927
606.30 0.9269
606.40 0.9268
606.50 0.9267
606.60 0.9266
606.70 0.9264
606.80 0.9263
606.90 0.9262
607.00 0.9261
607.10 0.926
607.20 0.9259
607.30 0.9257
607.40 0.9256
607.50 0.9255
607.60 0.9254
607.70 0.9253
607.80 0.9252
607.90 0.925
608.00 0.9249
608.10 0.9248
608.20 0.9247
608.30 0.9246
608.40 0.9245
608.50 0.9243
608.60 0.9242
608.70 0.9241
608.80 0.924
608.90 0.9239
609.00 0.9238
609.10 0.9236
609.20 0.9235
609.30 0.9234
609.40 0.9233
609.50 0.9232
609.60 0.9231
609.70 0.9229
609.80 0.9228
609.90 0.9227
610.00 0.9226
610.10 0.9225
610.20 0.9224
610.30 0.9222
610.40 0.9221
610.50 0.922
610.60 0.9219
610.70 0.9218
610.80 0.9216
610.90 0.9215
611.00 0.9214
611.10 0.9213
611.20 0.9212
611.30 0.921
611.40 0.9209
611.50 0.9208
611.60 0.9207
611.70 0.9206
611.80 0.9204
611.90 0.9203
612.00 0.9202
612.10 0.9201
612.20 0.92
612.30 0.9199
612.40 0.9197
612.50 0.9196
612.60 0.9195
612.70 0.9194
612.80 0.9193
612.90 0.9191
613.00 0.919
613.10 0.9189
613.20 0.9188
613.30 0.9187
613.40 0.9185
613.50 0.9184
613.60 0.9183
613.70 0.9182
613.80 0.9181
613.90 0.9179
614.00 0.9178
614.10 0.9177
614.20 0.9176
614.30 0.9175
614.40 0.9173
614.50 0.9172
614.60 0.9171
614.70 0.917
614.80 0.9169
614.90 0.9167
615.00 0.9166
615.10 0.9165
615.20 0.9164
615.30 0.9163
615.40 0.9161
615.50 0.916
615.60 0.9159
615.70 0.9158
615.80 0.9157
615.90 0.9155
616.00 0.9154
616.10 0.9153
616.20 0.9152
616.30 0.9151
616.40 0.9149
616.50 0.9148
616.60 0.9147
616.70 0.9146
616.80 0.9144
616.90 0.9143
617.00 0.9142
617.10 0.9141
617.20 0.914
617.30 0.9138
617.40 0.9137
617.50 0.9136
617.60 0.9135
617.70 0.9133
617.80 0.9132
617.90 0.9131
618.00 0.913
618.10 0.9129
618.20 0.9127
618.30 0.9126
618.40 0.9125
618.50 0.9124
618.60 0.9122
618.70 0.9121
618.80 0.912
618.90 0.9119
619.00 0.9118
619.10 0.9116
619.20 0.9115
619.30 0.9114
619.40 0.9113
619.50 0.9111
619.60 0.911
619.70 0.9109
619.80 0.9108
619.90 0.9107
620.00 0.9105
620.10 0.9104
620.20 0.9103
620.30 0.9102
620.40 0.91
620.50 0.9099
620.60 0.9098
620.70 0.9097
620.80 0.9095
620.90 0.9094
621.00 0.9093
621.10 0.9092
621.20 0.9091
621.30 0.9089
621.40 0.9088
621.50 0.9087
621.60 0.9086
621.70 0.9084
621.80 0.9083
621.90 0.9082
622.00 0.9081
622.10 0.9079
622.20 0.9078
622.30 0.9077
622.40 0.9076
622.50 0.9074
622.60 0.9073
622.70 0.9072
622.80 0.9071
622.90 0.907
623.00 0.9068
623.10 0.9067
623.20 0.9066
623.30 0.9065
623.40 0.9063
623.50 0.9062
623.60 0.9061
623.70 0.906
623.80 0.9058
623.90 0.9057
624.00 0.9056
624.10 0.9055
624.20 0.9053
624.30 0.9052
624.40 0.9051
624.50 0.905
624.60 0.9048
624.70 0.9047
624.80 0.9046
624.90 0.9045
625.00 0.9043
625.10 0.9042
625.20 0.9041
625.30 0.904
625.40 0.9038
625.50 0.9037
625.60 0.9036
625.70 0.9035
625.80 0.9033
625.90 0.9032
626.00 0.9031
626.10 0.903
626.20 0.9028
626.30 0.9027
626.40 0.9026
626.50 0.9025
626.60 0.9023
626.70 0.9022
626.80 0.9021
626.90 0.9019
627.00 0.9018
627.10 0.9017
627.20 0.9016
627.30 0.9014
627.40 0.9013
627.50 0.9012
627.60 0.9011
627.70 0.9009
627.80 0.9008
627.90 0.9007
628.00 0.9006
628.10 0.9004
628.20 0.9003
628.30 0.9002
628.40 0.9
628.50 0.8999
628.60 0.8998
628.70 0.8997
628.80 0.8995
628.90 0.8994
629.00 0.8993
629.10 0.8992
629.20 0.899
629.30 0.8989
629.40 0.8988
629.50 0.8987
629.60 0.8985
629.70 0.8984
629.80 0.8983
629.90 0.8981
630.00 0.898
630.10 0.8979
630.20 0.8978
630.30 0.8976
630.40 0.8975
630.50 0.8974
630.60 0.8973
630.70 0.8971
630.80 0.897
630.90 0.8969
631.00 0.8967
631.10 0.8966
631.20 0.8965
631.30 0.8964
631.40 0.8962
631.50 0.8961
631.60 0.896
631.70 0.8958
631.80 0.8957
631.90 0.8956
632.00 0.8955
632.10 0.8953
632.20 0.8952
632.30 0.8951
632.40 0.895
632.50 0.8948
632.60 0.8947
632.70 0.8946
632.80 0.8944
632.90 0.8943
633.00 0.8942
633.10 0.894
633.20 0.8939
633.30 0.8938
633.40 0.8937
633.50 0.8935
633.60 0.8934
633.70 0.8933
633.80 0.8931
633.90 0.893
634.00 0.8929
634.10 0.8928
634.20 0.8926
634.30 0.8925
634.40 0.8924
634.50 0.8922
634.60 0.8921
634.70 0.892
634.80 0.8919
634.90 0.8917
635.00 0.8916
635.10 0.8915
635.20 0.8913
635.30 0.8912
635.40 0.8911
635.50 0.8909
635.60 0.8908
635.70 0.8907
635.80 0.8905
635.90 0.8904
636.00 0.8903
636.10 0.8902
636.20 0.89
636.30 0.8899
636.40 0.8898
636.50 0.8896
636.60 0.8895
636.70 0.8894
636.80 0.8892
636.90 0.8891
637.00 0.889
637.10 0.8889
637.20 0.8887
637.30 0.8886
637.40 0.8885
637.50 0.8883
637.60 0.8882
637.70 0.8881
637.80 0.8879
637.90 0.8878
638.00 0.8877
638.10 0.8875
638.20 0.8874
638.30 0.8873
638.40 0.8872
638.50 0.887
638.60 0.8869
638.70 0.8868
638.80 0.8866
638.90 0.8865
639.00 0.8864
639.10 0.8862
639.20 0.8861
639.30 0.886
639.40 0.8858
639.50 0.8857
639.60 0.8856
639.70 0.8854
639.80 0.8853
639.90 0.8852
640.00 0.885
640.10 0.8849
640.20 0.8848
640.30 0.8846
640.40 0.8845
640.50 0.8844
640.60 0.8842
640.70 0.8841
640.80 0.884
640.90 0.8838
641.00 0.8837
641.10 0.8836
641.20 0.8834
641.30 0.8833
641.40 0.8832
641.50 0.883
641.60 0.8829
641.70 0.8828
641.80 0.8826
641.90 0.8825
642.00 0.8824
642.10 0.8822
642.20 0.8821
642.30 0.882
642.40 0.8818
642.50 0.8817
642.60 0.8816
642.70 0.8814
642.80 0.8813
642.90 0.8811
643.00 0.881
643.10 0.8809
643.20 0.8807
643.30 0.8806
643.40 0.8805
643.50 0.8803
643.60 0.8802
643.70 0.8801
643.80 0.8799
643.90 0.8798
644.00 0.8796
644.10 0.8795
644.20 0.8794
644.30 0.8792
644.40 0.8791
644.50 0.879
644.60 0.8788
644.70 0.8787
644.80 0.8785
644.90 0.8784
645.00 0.8783
645.10 0.8781
645.20 0.878
645.30 0.8779
645.40 0.8777
645.50 0.8776
645.60 0.8774
645.70 0.8773
645.80 0.8771
645.90 0.877
646.00 0.8769
646.10 0.8767
646.20 0.8766
646.30 0.8764
646.40 0.8763
646.50 0.8762
646.60 0.876
646.70 0.8759
646.80 0.8757
646.90 0.8756
647.00 0.8754
647.10 0.8753
647.20 0.8751
647.30 0.875
647.40 0.8748
647.50 0.8747
647.60 0.8745
647.70 0.8744
647.80 0.8742
647.90 0.8741
648.00 0.874
648.10 0.8738
648.20 0.8737
648.30 0.8735
648.40 0.8733
648.50 0.8732
648.60 0.873
648.70 0.8729
648.80 0.8727
648.90 0.8726
649.00 0.8724
649.10 0.8723
649.20 0.8721
649.30 0.8719
649.40 0.8718
649.50 0.8716
649.60 0.8714
649.70 0.8713
649.80 0.8711
649.90 0.8709
650.00 0.8707
650.10 0.8706
650.20 0.8704
650.30 0.8702
650.40 0.87
650.50 0.8698
650.60 0.8696
650.70 0.8695
650.80 0.8693
650.90 0.8691
651.00 0.8689
651.10 0.8687
651.20 0.8685
651.30 0.8683
651.40 0.868
651.50 0.8678
651.60 0.8676
651.70 0.8673
651.80 0.8671
651.90 0.8669
652.00 0.8666
652.10 0.8664
652.20 0.8661
652.30 0.8659
652.40 0.8655
652.50 0.8652
652.60 0.8648
652.70 0.8645
652.80 0.8641
652.90 0.8637
653.00 0.8634
653.10 0.863
653.20 0.8627
653.30 0.8623
653.40 0.8616
653.50 0.8609
653.60 0.8602
653.70 0.8595
653.80 0.8588
653.90 0.8581
654.00 0.8574
654.10 0.8567
654.20 0.856
654.30 0.8551
654.40 0.8536
654.50 0.8522
654.60 0.8507
654.70 0.8492
654.80 0.8474
654.90 0.8443
655.00 0.8412
655.10 0.8381
655.20 0.835
655.30 0.8313
655.40 0.8256
655.50 0.8193
655.60 0.8104
655.70 0.8004
655.80 0.7857
655.90 0.7687
656.00 0.7421
656.10 0.7134
656.20 0.6655
656.30 0.6121
656.40 0.686
656.50 0.7251
656.60 0.7517
656.70 0.7757
656.80 0.7902
656.90 0.8035
657.00 0.8121
657.10 0.8201
657.20 0.8256
657.30 0.8305
657.40 0.8334
657.50 0.8362
657.60 0.8391
657.70 0.8419
657.80 0.8444
657.90 0.8456
658.00 0.8468
658.10 0.848
658.20 0.8492
658.30 0.8503
658.40 0.8507
658.50 0.8512
658.60 0.8516
658.70 0.852
658.80 0.8524
658.90 0.8529
659.00 0.8533
659.10 0.8537
659.20 0.8541
659.30 0.8545
659.40 0.8546
659.50 0.8546
659.60 0.8547
659.70 0.8548
659.80 0.8549
659.90 0.855
660.00 0.855
660.10 0.8551
660.20 0.8552
660.30 0.8553
660.40 0.8552
660.50 0.8552
660.60 0.8552
660.70 0.8551
660.80 0.8551
660.90 0.8551
661.00 0.855
661.10 0.855
661.20 0.855
661.30 0.8549
661.40 0.8549
661.50 0.8548
661.60 0.8547
661.70 0.8546
661.80 0.8546
661.90 0.8545
662.00 0.8544
662.10 0.8543
662.20 0.8543
662.30 0.8542
662.40 0.8541
662.50 0.854
662.60 0.8539
662.70 0.8538
662.80 0.8537
662.90 0.8536
663.00 0.8535
663.10 0.8534
663.20 0.8533
663.30 0.8532
663.40 0.853
663.50 0.8529
663.60 0.8528
663.70 0.8527
663.80 0.8526
663.90 0.8525
664.00 0.8524
664.10 0.8522
664.20 0.8521
664.30 0.852
664.40 0.8519
664.50 0.8518
664.60 0.8517
664.70 0.8515
664.80 0.8514
664.90 0.8513
665.00 0.8512
665.10 0.8511
665.20 0.8509
665.30 0.8508
665.40 0.8507
665.50 0.8506
665.60 0.8504
665.70 0.8503
665.80 0.8502
665.90 0.8501
666.00 0.8499
666.10 0.8498
666.20 0.8497
666.30 0.8496
666.40 0.8494
666.50 0.8493
666.60 0.8492
666.70 0.849
666.80 0.8489
666.90 0.8488
667.00 0.8487
667.10 0.8485
667.20 0.8484
667.30 0.8483
667.40 0.8481
667.50 0.848
667.60 0.8479
667.70 0.8478
667.80 0.8476
667.90 0.8475
668.00 0.8474
668.10 0.8472
668.20 0.8471
668.30 0.847
668.40 0.8468
668.50 0.8467
668.60 0.8466
668.70 0.8464
668.80 0.8463
668.90 0.8462
669.00 0.8461
669.10 0.8459
669.20 0.8458
669.30 0.8457
669.40 0.8455
669.50 0.8454
669.60 0.8453
669.70 0.8451
669.80 0.845
669.90 0.8449
670.00 0.8447
670.10 0.8446
670.20 0.8445
670.30 0.8443
670.40 0.8442
670.50 0.8441
670.60 0.8439
670.70 0.8438
670.80 0.8436
670.90 0.8435
671.00 0.8434
671.10 0.8432
671.20 0.8431
671.30 0.843
671.40 0.8428
671.50 0.8427
671.60 0.8426
671.70 0.8424
671.80 0.8423
671.90 0.8422
672.00 0.842
672.10 0.8419
672.20 0.8418
672.30 0.8416
672.40 0.8415
672.50 0.8413
672.60 0.8412
672.70 0.8411
672.80 0.8409
672.90 0.8408
673.00 0.8407
673.10 0.8405
673.20 0.8404
673.30 0.8403
673.40 0.8401
673.50 0.84
673.60 0.8399
673.70 0.8397
673.80 0.8396
673.90 0.8395
674.00 0.8393
674.10 0.8392
674.20 0.839
674.30 0.8389
674.40 0.8388
674.50 0.8386
674.60 0.8385
674.70 0.8384
674.80 0.8382
674.90 0.8381
675.00 0.838
675.10 0.8378
675.20 0.8377
675.30 0.8375
675.40 0.8374
675.50 0.8373
675.60 0.8371
675.70 0.837
675.80 0.8369
675.90 0.8367
676.00 0.8366
676.10 0.8364
676.20 0.8363
676.30 0.8362
676.40 0.836
676.50 0.8359
676.60 0.8358
676.70 0.8356
676.80 0.8355
676.90 0.8353
677.00 0.8352
677.10 0.8351
677.20 0.8349
677.30 0.8348
677.40 0.8347
677.50 0.8345
677.60 0.8344
677.70 0.8342
677.80 0.8341
677.90 0.834
678.00 0.8338
678.10 0.8337
678.20 0.8336
678.30 0.8334
678.40 0.8333
678.50 0.8331
678.60 0.833
678.70 0.8329
678.80 0.8327
678.90 0.8326
679.00 0.8325
679.10 0.8323
679.20 0.8322
679.30 0.832
679.40 0.8319
679.50 0.8318
679.60 0.8316
679.70 0.8315
679.80 0.8313
679.90 0.8312
680.00 0.8311
680.10 0.8309
680.20 0.8308
680.30 0.8307
680.40 0.8305
680.50 0.8304
680.60 0.8302
680.70 0.8301
680.80 0.83
680.90 0.8298
681.00 0.8297
681.10 0.8296
681.20 0.8294
681.30 0.8293
681.40 0.8291
681.50 0.829
681.60 0.8289
681.70 0.8287
681.80 0.8286
681.90 0.8284
682.00 0.8283
682.10 0.8282
682.20 0.828
682.30 0.8279
682.40 0.8278
682.50 0.8276
682.60 0.8275
682.70 0.8273
682.80 0.8272
682.90 0.8271
683.00 0.8269
683.10 0.8268
683.20 0.8266
683.30 0.8265
683.40 0.8264
683.50 0.8262
683.60 0.8261
683.70 0.826
683.80 0.8258
683.90 0.8257
684.00 0.8255
684.10 0.8254
684.20 0.8253
684.30 0.8251
684.40 0.825
684.50 0.8248
684.60 0.8247
684.70 0.8246
684.80 0.8244
684.90 0.8243
685.00 0.8241
685.10 0.824
685.20 0.8239
685.30 0.8237
685.40 0.8236
685.50 0.8235
685.60 0.8233
685.70 0.8232
685.80 0.823
685.90 0.8229
686.00 0.8228
686.10 0.8226
686.20 0.8225
686.30 0.8223
686.40 0.8222
686.50 0.8221
686.60 0.8219
686.70 0.8218
686.80 0.8217
686.90 0.8215
687.00 0.8214
687.10 0.8212
687.20 0.8211
687.30 0.821
687.40 0.8208
687.50 0.8207
687.60 0.8205
687.70 0.8204
687.80 0.8203
687.90 0.8201
688.00 0.82
688.10 0.8198
688.20 0.8197
688.30 0.8196
688.40 0.8194
688.50 0.8193
688.60 0.8191
688.70 0.819
688.80 0.8189
688.90 0.8187
689.00 0.8186
689.10 0.8184
689.20 0.8183
689.30 0.8182
689.40 0.818
689.50 0.8179
689.60 0.8177
689.70 0.8176
689.80 0.8175
689.90 0.8173
690.00 0.8172
690.10 0.817
690.20 0.8169
690.30 0.8168
690.40 0.8166
690.50 0.8165
690.60 0.8163
690.70 0.8162
690.80 0.8161
690.90 0.8159
691.00 0.8158
691.10 0.8156
691.20 0.8155
691.30 0.8154
691.40 0.8152
691.50 0.8151
691.60 0.8149
691.70 0.8148
691.80 0.8147
691.90 0.8145
692.00 0.8144
692.10 0.8142
692.20 0.8141
692.30 0.814
692.40 0.8138
692.50 0.8137
692.60 0.8135
692.70 0.8134
692.80 0.8133
692.90 0.8131
693.00 0.813
693.10 0.8128
693.20 0.8127
693.30 0.8126
693.40 0.8124
693.50 0.8123
693.60 0.8122
693.70 0.812
693.80 0.8119
693.90 0.8117
694.00 0.8116
694.10 0.8115
694.20 0.8113
694.30 0.8112
694.40 0.811
694.50 0.8109
694.60 0.8108
694.70 0.8106
694.80 0.8105
694.90 0.8103
695.00 0.8102
695.10 0.8101
695.20 0.8099
695.30 0.8098
695.40 0.8096
695.50 0.8095
695.60 0.8094
695.70 0.8092
695.80 0.8091
695.90 0.8089
696.00 0.8088
696.10 0.8087
696.20 0.8085
696.30 0.8084
696.40 0.8082
696.50 0.8081
696.60 0.808
696.70 0.8078
696.80 0.8077
696.90 0.8075
697.00 0.8074
697.10 0.8073
697.20 0.8071
697.30 0.807
697.40 0.8068
697.50 0.8067
697.60 0.8066
697.70 0.8064
697.80 0.8063
697.90 0.8061
698.00 0.806
698.10 0.8059
698.20 0.8057
698.30 0.8056
698.40 0.8054
698.50 0.8053
698.60 0.8052
698.70 0.805
698.80 0.8049
698.90 0.8047
699.00 0.8046
699.10 0.8045
699.20 0.8043
699.30 0.8042
699.40 0.804
699.50 0.8039
699.60 0.8038
699.70 0.8036
699.80 0.8035
699.90 0.8033
700.00 0.8032
700.10 0.8031
700.20 0.8029
700.30 0.8028
700.40 0.8026
700.50 0.8025
700.60 0.8024
700.70 0.8022
700.80 0.8021
700.90 0.8019
701.00 0.8018
701.10 0.8016
701.20 0.8015
701.30 0.8014
701.40 0.8012
701.50 0.8011
701.60 0.8009
701.70 0.8008
701.80 0.8007
701.90 0.8005
702.00 0.8004
702.10 0.8002
702.20 0.8001
702.30 0.8
702.40 0.7998
702.50 0.7997
702.60 0.7995
702.70 0.7994
702.80 0.7993
702.90 0.7991
703.00 0.799
703.10 0.7988
703.20 0.7987
703.30 0.7986
703.40 0.7984
703.50 0.7983
703.60 0.7981
703.70 0.798
703.80 0.7979
703.90 0.7977
704.00 0.7976
704.10 0.7974
704.20 0.7973
704.30 0.7972
704.40 0.797
704.50 0.7969
704.60 0.7967
704.70 0.7966
704.80 0.7965
704.90 0.7963
705.00 0.7962
705.10 0.796
705.20 0.7959
705.30 0.7958
705.40 0.7956
705.50 0.7955
705.60 0.7953
705.70 0.7952
705.80 0.7951
705.90 0.7949
706.00 0.7948
706.10 0.7946
706.20 0.7945
706.30 0.7943
706.40 0.7942
706.50 0.7941
706.60 0.7939
706.70 0.7938
706.80 0.7936
706.90 0.7935
707.00 0.7934
707.10 0.7932
707.20 0.7931
707.30 0.7929
707.40 0.7928
707.50 0.7927
707.60 0.7925
707.70 0.7924
707.80 0.7922
707.90 0.7921
708.00 0.792
708.10 0.7918
708.20 0.7917
708.30 0.7915
708.40 0.7914
708.50 0.7913
708.60 0.7911
708.70 0.791
708.80 0.7908
708.90 0.7907
709.00 0.7906
709.10 0.7904
709.20 0.7903
709.30 0.7901
709.40 0.79
709.50 0.7899
709.60 0.7897
709.70 0.7896
709.80 0.7894
709.90 0.7893
710.00 0.7892
710.10 0.789
710.20 0.7889
710.30 0.7887
710.40 0.7886
710.50 0.7885
710.60 0.7883
710.70 0.7882
710.80 0.788
710.90 0.7879
711.00 0.7877
711.10 0.7876
711.20 0.7875
711.30 0.7873
711.40 0.7872
711.50 0.787
711.60 0.7869
711.70 0.7868
711.80 0.7866
711.90 0.7865
712.00 0.7863
712.10 0.7862
712.20 0.7861
712.30 0.7859
712.40 0.7858
712.50 0.7856
712.60 0.7855
712.70 0.7854
712.80 0.7852
712.90 0.7851
713.00 0.7849
713.10 0.7848
713.20 0.7846
713.30 0.7845
713.40 0.7844
713.50 0.7842
713.60 0.7841
713.70 0.7839
713.80 0.7838
713.90 0.7837
714.00 0.7835
714.10 0.7834
714.20 0.7832
714.30 0.7831
714.40 0.783
714.50 0.7828
714.60 0.7827
714.70 0.7826
714.80 0.7824
714.90 0.7823
715.00 0.7821
715.10 0.782
715.20 0.7818
715.30 0.7817
715.40 0.7816
715.50 0.7814
715.60 0.7813
715.70 0.7811
715.80 0.781
715.90 0.7809
716.00 0.7807
716.10 0.7806
716.20 0.7804
716.30 0.7803
716.40 0.7802
716.50 0.78
716.60 0.7799
716.70 0.7797
716.80 0.7796
716.90 0.7794
717.00 0.7793
717.10 0.7792
717.20 0.779
717.30 0.7789
717.40 0.7787
717.50 0.7786
717.60 0.7785
717.70 0.7783
717.80 0.7782
717.90 0.778
718.00 0.7779
718.10 0.7778
718.20 0.7776
718.30 0.7775
718.40 0.7773
718.50 0.7772
718.60 0.7771
718.70 0.7769
718.80 0.7768
718.90 0.7766
719.00 0.7765
719.10 0.7764
719.20 0.7762
719.30 0.7761
719.40 0.7759
719.50 0.7758
719.60 0.7757
719.70 0.7755
719.80 0.7754
719.90 0.7752
720.00 0.7751
720.10 0.775
720.20 0.7748
720.30 0.7747
720.40 0.7745
720.50 0.7744
720.60 0.7743
720.70 0.7741
720.80 0.774
720.90 0.7738
721.00 0.7737
721.10 0.7736
721.20 0.7734
721.30 0.7733
721.40 0.7731
721.50 0.773
721.60 0.7728
721.70 0.7727
721.80 0.7726
721.90 0.7724
722.00 0.7723
722.10 0.7721
722.20 0.772
722.30 0.7719
722.40 0.7717
722.50 0.7716
722.60 0.7714
722.70 0.7713
722.80 0.7712
722.90 0.771
723.00 0.7709
723.10 0.7707
723.20 0.7706
723.30 0.7705
723.40 0.7703
723.50 0.7702
723.60 0.77
723.70 0.7699
723.80 0.7698
723.90 0.7696
724.00 0.7695
724.10 0.7693
724.20 0.7692
724.30 0.7691
724.40 0.7689
724.50 0.7688
724.60 0.7686
724.70 0.7685
724.80 0.7684
724.90 0.7682
725.00 0.7681
725.10 0.7679
725.20 0.7678
725.30 0.7677
725.40 0.7675
725.50 0.7674
725.60 0.7672
725.70 0.7671
725.80 0.767
725.90 0.7668
726.00 0.7667
726.10 0.7665
726.20 0.7664
726.30 0.7663
726.40 0.7661
726.50 0.766
726.60 0.7658
726.70 0.7657
726.80 0.7655
726.90 0.7654
727.00 0.7653
727.10 0.7651
727.20 0.765
727.30 0.7648
727.40 0.7647
727.50 0.7646
727.60 0.7644
727.70 0.7643
727.80 0.7641
727.90 0.764
728.00 0.7639
728.10 0.7637
728.20 0.7636
728.30 0.7634
728.40 0.7633
728.50 0.7632
728.60 0.763
728.70 0.7629
728.80 0.7627
728.90 0.7626
729.00 0.7625
729.10 0.7623
729.20 0.7622
729.30 0.762
729.40 0.7619
729.50 0.7618
729.60 0.7616
729.70 0.7615
729.80 0.7614
729.90 0.7612
730.00 0.7611
730.10 0.7609
730.20 0.7608
730.30 0.7606
730.40 0.7605
730.50 0.7604
730.60 0.7602
730.70 0.7601
730.80 0.7599
730.90 0.7598
731.00 0.7597
731.10 0.7595
731.20 0.7594
731.30 0.7592
731.40 0.7591
731.50 0.7589
731.60 0.7588
731.70 0.7587
731.80 0.7585
731.90 0.7584
732.00 0.7582
732.10 0.7581
732.20 0.758
732.30 0.7578
732.40 0.7577
732.50 0.7575
732.60 0.7574
732.70 0.7572
732.80 0.7571
732.90 0.757
733.00 0.7568
733.10 0.7567
733.20 0.7565
733.30 0.7564
733.40 0.7563
733.50 0.7561
733.60 0.756
733.70 0.7558
733.80 0.7557
733.90 0.7556
734.00 0.7554
734.10 0.7553
734.20 0.7551
734.30 0.755
734.40 0.7549
734.50 0.7547
734.60 0.7546
734.70 0.7544
734.80 0.7543
734.90 0.7542
735.00 0.754
735.10 0.7539
735.20 0.7537
735.30 0.7536
735.40 0.7535
735.50 0.7533
735.60 0.7532
735.70 0.753
735.80 0.7529
735.90 0.7528
736.00 0.7526
736.10 0.7525
736.20 0.7523
736.30 0.7522
736.40 0.7521
736.50 0.7519
736.60 0.7518
736.70 0.7516
736.80 0.7515
736.90 0.7514
737.00 0.7512
737.10 0.7511
737.20 0.751
737.30 0.7508
737.40 0.7507
737.50 0.7505
737.60 0.7504
737.70 0.7503
737.80 0.7501
737.90 0.75
738.00 0.7498
738.10 0.7497
738.20 0.7496
738.30 0.7494
738.40 0.7493
738.50 0.7492
738.60 0.749
738.70 0.7489
738.80 0.7487
738.90 0.7486
739.00 0.7485
739.10 0.7483
739.20 0.7482
739.30 0.748
739.40 0.7479
739.50 0.7478
739.60 0.7476
739.70 0.7475
739.80 0.7474
739.90 0.7472
740.00 0.7471
740.10 0.7469
740.20 0.7468
740.30 0.7467
740.40 0.7465
740.50 0.7464
740.60 0.7462
740.70 0.7461
740.80 0.746
740.90 0.7458
741.00 0.7457
741.10 0.7455
741.20 0.7454
741.30 0.7452
741.40 0.7451
741.50 0.745
741.60 0.7448
741.70 0.7447
741.80 0.7445
741.90 0.7444
742.00 0.7443
742.10 0.7441
742.20 0.744
742.30 0.7438
742.40 0.7437
742.50 0.7436
742.60 0.7434
742.70 0.7433
742.80 0.7431
742.90 0.743
743.00 0.7429
743.10 0.7427
743.20 0.7426
743.30 0.7424
743.40 0.7423
743.50 0.7422
743.60 0.742
743.70 0.7419
743.80 0.7417
743.90 0.7416
744.00 0.7415
744.10 0.7413
744.20 0.7412
744.30 0.741
744.40 0.7409
744.50 0.7408
744.60 0.7406
744.70 0.7405
744.80 0.7403
744.90 0.7402
745.00 0.7401
745.10 0.7399
745.20 0.7398
745.30 0.7396
745.40 0.7395
745.50 0.7394
745.60 0.7392
745.70 0.7391
745.80 0.7389
745.90 0.7388
746.00 0.7387
746.10 0.7385
746.20 0.7384
746.30 0.7382
746.40 0.7381
746.50 0.738
746.60 0.7378
746.70 0.7377
746.80 0.7376
746.90 0.7374
747.00 0.7373
747.10 0.7371
747.20 0.737
747.30 0.7369
747.40 0.7367
747.50 0.7366
747.60 0.7365
747.70 0.7363
747.80 0.7362
747.90 0.736
748.00 0.7359
748.10 0.7358
748.20 0.7356
748.30 0.7355
748.40 0.7353
748.50 0.7352
748.60 0.7351
748.70 0.7349
748.80 0.7348
748.90 0.7347
749.00 0.7345
749.10 0.7344
749.20 0.7342
749.30 0.7341
749.40 0.734
749.50 0.7338
749.60 0.7337
749.70 0.7336
749.80 0.7334
749.90 0.7333
750.00 0.7332
750.10 0.733
750.20 0.7329
750.30 0.7327
750.40 0.7326
750.50 0.7324
750.60 0.7323
750.70 0.7322
750.80 0.732
750.90 0.7319
751.00 0.7317
751.10 0.7316
751.20 0.7315
751.30 0.7313
751.40 0.7312
751.50 0.731
751.60 0.7309
751.70 0.7308
751.80 0.7306
751.90 0.7305
752.00 0.7303
752.10 0.7302
752.20 0.7301
752.30 0.7299
752.40 0.7298
752.50 0.7297
752.60 0.7295
752.70 0.7294
752.80 0.7292
752.90 0.7291
753.00 0.729
753.10 0.7288
753.20 0.7287
753.30 0.7285
753.40 0.7284
753.50 0.7283
753.60 0.7281
753.70 0.728
753.80 0.7278
753.90 0.7277
754.00 0.7276
754.10 0.7274
754.20 0.7273
754.30 0.7271
754.40 0.727
754.50 0.7269
754.60 0.7267
754.70 0.7266
754.80 0.7265
754.90 0.7263
755.00 0.7262
755.10 0.726
755.20 0.7259
755.30 0.7258
755.40 0.7256
755.50 0.7255
755.60 0.7254
755.70 0.7252
755.80 0.7251
755.90 0.7249
756.00 0.7248
756.10 0.7247
756.20 0.7245
756.30 0.7244
756.40 0.7243
756.50 0.7241
756.60 0.724
756.70 0.7238
756.80 0.7237
756.90 0.7236
757.00 0.7234
757.10 0.7233
757.20 0.7232
757.30 0.723
757.40 0.7229
757.50 0.7227
757.60 0.7226
757.70 0.7225
757.80 0.7223
757.90 0.7222
758.00 0.7221
758.10 0.7219
758.20 0.7218
758.30 0.7216
758.40 0.7215
758.50 0.7214
758.60 0.7212
758.70 0.7211
758.80 0.721
758.90 0.7208
759.00 0.7207
759.10 0.7206
759.20 0.7204
759.30 0.7203
759.40 0.7201
759.50 0.72
759.60 0.7199
759.70 0.7197
759.80 0.7196
759.90 0.7195
760.00 0.7193
760.10 0.7192
760.20 0.7191
760.30 0.7189
760.40 0.7188
760.50 0.7186
760.60 0.7185
760.70 0.7184
760.80 0.7182
760.90 0.7181
761.00 0.7179
761.10 0.7178
761.20 0.7177
761.30 0.7175
761.40 0.7174
761.50 0.7172
761.60 0.7171
761.70 0.717
761.80 0.7168
761.90 0.7167
762.00 0.7165
762.10 0.7164
762.20 0.7163
762.30 0.7161
762.40 0.716
762.50 0.7159
762.60 0.7157
762.70 0.7156
762.80 0.7154
762.90 0.7153
763.00 0.7152
763.10 0.715
763.20 0.7149
763.30 0.7147
763.40 0.7146
763.50 0.7145
763.60 0.7143
763.70 0.7142
763.80 0.7141
763.90 0.7139
764.00 0.7138
764.10 0.7136
764.20 0.7135
764.30 0.7134
764.40 0.7132
764.50 0.7131
764.60 0.713
764.70 0.7128
764.80 0.7127
764.90 0.7125
765.00 0.7124
765.10 0.7123
765.20 0.7121
765.30 0.712
765.40 0.7119
765.50 0.7117
765.60 0.7116
765.70 0.7114
765.80 0.7113
765.90 0.7112
766.00 0.711
766.10 0.7109
766.20 0.7108
766.30 0.7106
766.40 0.7105
766.50 0.7104
766.60 0.7102
766.70 0.7101
766.80 0.7099
766.90 0.7098
767.00 0.7097
767.10 0.7095
767.20 0.7094
767.30 0.7093
767.40 0.7091
767.50 0.709
767.60 0.7089
767.70 0.7087
767.80 0.7086
767.90 0.7084
768.00 0.7083
768.10 0.7082
768.20 0.708
768.30 0.7079
768.40 0.7078
768.50 0.7076
768.60 0.7075
768.70 0.7074
768.80 0.7072
768.90 0.7071
769.00 0.707
769.10 0.7068
769.20 0.7067
769.30 0.7066
769.40 0.7064
769.50 0.7063
769.60 0.7061
769.70 0.706
769.80 0.7059
769.90 0.7057
770.00 0.7056
770.10 0.7055
770.20 0.7053
770.30 0.7052
770.40 0.7051
770.50 0.7049
770.60 0.7048
770.70 0.7046
770.80 0.7045
770.90 0.7044
771.00 0.7042
771.10 0.7041
771.20 0.7039
771.30 0.7038
771.40 0.7037
771.50 0.7035
771.60 0.7034
771.70 0.7033
771.80 0.7031
771.90 0.703
772.00 0.7028
772.10 0.7027
772.20 0.7026
772.30 0.7024
772.40 0.7023
772.50 0.7022
772.60 0.702
772.70 0.7019
772.80 0.7018
772.90 0.7016
773.00 0.7015
773.10 0.7013
773.20 0.7012
773.30 0.7011
773.40 0.7009
773.50 0.7008
773.60 0.7007
773.70 0.7005
773.80 0.7004
773.90 0.7002
774.00 0.7001
774.10 0.7
774.20 0.6998
774.30 0.6997
774.40 0.6996
774.50 0.6994
774.60 0.6993
774.70 0.6992
774.80 0.699
774.90 0.6989
775.00 0.6988
775.10 0.6986
775.20 0.6985
775.30 0.6983
775.40 0.6982
775.50 0.6981
775.60 0.6979
775.70 0.6978
775.80 0.6977
775.90 0.6975
776.00 0.6974
776.10 0.6973
776.20 0.6971
776.30 0.697
776.40 0.6969
776.50 0.6967
776.60 0.6966
776.70 0.6964
776.80 0.6963
776.90 0.6962
777.00 0.696
777.10 0.6959
777.20 0.6958
777.30 0.6956
777.40 0.6955
777.50 0.6954
777.60 0.6952
777.70 0.6951
777.80 0.695
777.90 0.6948
778.00 0.6947
778.10 0.6946
778.20 0.6944
778.30 0.6943
778.40 0.6942
778.50 0.694
778.60 0.6939
778.70 0.6938
778.80 0.6936
778.90 0.6935
779.00 0.6934
779.10 0.6932
779.20 0.6931
779.30 0.6929
779.40 0.6928
779.50 0.6927
779.60 0.6925
779.70 0.6924
779.80 0.6923
779.90 0.6921
780.00 0.692
780.10 0.6919
780.20 0.6917
780.30 0.6916
780.40 0.6915
780.50 0.6913
780.60 0.6912
780.70 0.6911
780.80 0.6909
780.90 0.6908
781.00 0.6906
781.10 0.6905
781.20 0.6904
781.30 0.6902
781.40 0.6901
781.50 0.69
781.60 0.6898
781.70 0.6897
781.80 0.6896
781.90 0.6894
782.00 0.6893
782.10 0.6892
782.20 0.689
782.30 0.6889
782.40 0.6887
782.50 0.6886
782.60 0.6885
782.70 0.6883
782.80 0.6882
782.90 0.6881
783.00 0.6879
783.10 0.6878
783.20 0.6877
783.30 0.6875
783.40 0.6874
783.50 0.6873
783.60 0.6871
783.70 0.687
783.80 0.6868
783.90 0.6867
784.00 0.6866
784.10 0.6864
784.20 0.6863
784.30 0.6862
784.40 0.686
784.50 0.6859
784.60 0.6858
784.70 0.6856
784.80 0.6855
784.90 0.6854
785.00 0.6852
785.10 0.6851
785.20 0.685
785.30 0.6848
785.40 0.6847
785.50 0.6846
785.60 0.6844
785.70 0.6843
785.80 0.6842
785.90 0.684
786.00 0.6839
786.10 0.6838
786.20 0.6836
786.30 0.6835
786.40 0.6834
786.50 0.6832
786.60 0.6831
786.70 0.683
786.80 0.6828
786.90 0.6827
787.00 0.6826
787.10 0.6824
787.20 0.6823
787.30 0.6822
787.40 0.682
787.50 0.6819
787.60 0.6818
787.70 0.6816
787.80 0.6815
787.90 0.6814
788.00 0.6812
788.10 0.6811
788.20 0.681
788.30 0.6808
788.40 0.6807
788.50 0.6806
788.60 0.6804
788.70 0.6803
788.80 0.6802
788.90 0.68
789.00 0.6799
789.10 0.6798
789.20 0.6796
789.30 0.6795
789.40 0.6794
789.50 0.6792
789.60 0.6791
789.70 0.679
789.80 0.6788
789.90 0.6787
790.00 0.6786
790.10 0.6784
790.20 0.6783
790.30 0.6782
790.40 0.678
790.50 0.6779
790.60 0.6778
790.70 0.6776
790.80 0.6775
790.90 0.6774
791.00 0.6772
791.10 0.6771
791.20 0.6769
791.30 0.6768
791.40 0.6767
791.50 0.6765
791.60 0.6764
791.70 0.6763
791.80 0.6761
791.90 0.676
792.00 0.6759
792.10 0.6757
792.20 0.6756
792.30 0.6755
792.40 0.6753
792.50 0.6752
792.60 0.6751
792.70 0.6749
792.80 0.6748
792.90 0.6747
793.00 0.6745
793.10 0.6744
793.20 0.6743
793.30 0.6741
793.40 0.674
793.50 0.6739
793.60 0.6737
793.70 0.6736
793.80 0.6735
793.90 0.6733
794.00 0.6732
794.10 0.6731
794.20 0.6729
794.30 0.6728
794.40 0.6727
794.50 0.6725
794.60 0.6724
794.70 0.6723
794.80 0.6721
794.90 0.672
795.00 0.6719
795.10 0.6717
795.20 0.6716
795.30 0.6715
795.40 0.6713
795.50 0.6712
795.60 0.6711
795.70 0.6709
795.80 0.6708
795.90 0.6707
796.00 0.6705
796.10 0.6704
796.20 0.6703
796.30 0.6701
796.40 0.67
796.50 0.6699
796.60 0.6697
796.70 0.6696
796.80 0.6695
796.90 0.6693
797.00 0.6692
797.10 0.6691
797.20 0.6689
797.30 0.6688
797.40 0.6687
797.50 0.6685
797.60 0.6684
797.70 0.6683
797.80 0.6682
797.90 0.668
798.00 0.6679
798.10 0.6678
798.20 0.6676
798.30 0.6675
798.40 0.6674
798.50 0.6672
798.60 0.6671
798.70 0.667
798.80 0.6668
798.90 0.6667
799.00 0.6666
799.10 0.6664
799.20 0.6663
799.30 0.6662
799.40 0.6661
799.50 0.6659
799.60 0.6658
799.70 0.6657
799.80 0.6655
799.90 0.6654
800.00 0.6653
800.10 0.6651
800.20 0.665
800.30 0.6649
800.40 0.6647
800.50 0.6646
800.60 0.6645
800.70 0.6643
800.80 0.6642
800.90 0.6641
801.00 0.6639
801.10 0.6638
801.20 0.6637
801.30 0.6635
801.40 0.6634
801.50 0.6633
801.60 0.6631
801.70 0.663
801.80 0.6629
801.90 0.6627
802.00 0.6626
802.10 0.6625
802.20 0.6623
802.30 0.6622
802.40 0.6621
802.50 0.6619
802.60 0.6618
802.70 0.6617
802.80 0.6615
802.90 0.6614
803.00 0.6613
803.10 0.6612
803.20 0.661
803.30 0.6609
803.40 0.6608
803.50 0.6606
803.60 0.6605
803.70 0.6604
803.80 0.6602
803.90 0.6601
804.00 0.66
804.10 0.6598
804.20 0.6597
804.30 0.6596
804.40 0.6594
804.50 0.6593
804.60 0.6592
804.70 0.659
804.80 0.6589
804.90 0.6588
805.00 0.6586
805.10 0.6585
805.20 0.6584
805.30 0.6583
805.40 0.6581
805.50 0.658
805.60 0.6579
805.70 0.6577
805.80 0.6576
805.90 0.6575
806.00 0.6573
806.10 0.6572
806.20 0.6571
806.30 0.6569
806.40 0.6568
806.50 0.6567
806.60 0.6566
806.70 0.6564
806.80 0.6563
806.90 0.6562
807.00 0.656
807.10 0.6559
807.20 0.6558
807.30 0.6556
807.40 0.6555
807.50 0.6554
807.60 0.6553
807.70 0.6551
807.80 0.655
807.90 0.6549
808.00 0.6547
808.10 0.6546
808.20 0.6545
808.30 0.6543
808.40 0.6542
808.50 0.6541
808.60 0.654
808.70 0.6538
808.80 0.6537
808.90 0.6536
809.00 0.6534
809.10 0.6533
809.20 0.6532
809.30 0.653
809.40 0.6529
809.50 0.6528
809.60 0.6527
809.70 0.6525
809.80 0.6524
809.90 0.6523
810.00 0.6521
810.10 0.652
810.20 0.6519
810.30 0.6517
810.40 0.6516
810.50 0.6515
810.60 0.6514
810.70 0.6512
810.80 0.6511
810.90 0.651
811.00 0.6508
811.10 0.6507
811.20 0.6506
811.30 0.6504
811.40 0.6503
811.50 0.6502
811.60 0.65
811.70 0.6499
811.80 0.6498
811.90 0.6496
812.00 0.6495
812.10 0.6494
812.20 0.6493
812.30 0.6491
812.40 0.649
812.50 0.6489
812.60 0.6487
812.70 0.6486
812.80 0.6485
812.90 0.6483
813.00 0.6482
813.10 0.6481
813.20 0.648
813.30 0.6478
813.40 0.6477
813.50 0.6476
813.60 0.6474
813.70 0.6473
813.80 0.6472
813.90 0.647
814.00 0.6469
814.10 0.6468
814.20 0.6466
814.30 0.6465
814.40 0.6464
814.50 0.6463
814.60 0.6461
814.70 0.646
814.80 0.6459
814.90 0.6457
815.00 0.6456
815.10 0.6455
815.20 0.6454
815.30 0.6452
815.40 0.6451
815.50 0.645
815.60 0.6448
815.70 0.6447
815.80 0.6446
815.90 0.6444
816.00 0.6443
816.10 0.6442
816.20 0.6441
816.30 0.6439
816.40 0.6438
816.50 0.6437
816.60 0.6435
816.70 0.6434
816.80 0.6433
816.90 0.6432
817.00 0.643
817.10 0.6429
817.20 0.6428
817.30 0.6426
817.40 0.6425
817.50 0.6424
817.60 0.6423
817.70 0.6421
817.80 0.642
817.90 0.6419
818.00 0.6417
818.10 0.6416
818.20 0.6415
818.30 0.6414
818.40 0.6412
818.50 0.6411
818.60 0.641
818.70 0.6409
818.80 0.6407
818.90 0.6406
819.00 0.6405
819.10 0.6403
819.20 0.6402
819.30 0.6401
819.40 0.64
819.50 0.6398
819.60 0.6397
819.70 0.6396
819.80 0.6394
819.90 0.6393
820.00 0.6392
820.10 0.6391
820.20 0.6389
820.30 0.6388
820.40 0.6387
820.50 0.6386
820.60 0.6384
820.70 0.6383
820.80 0.6382
820.90 0.638
821.00 0.6379
821.10 0.6378
821.20 0.6377
821.30 0.6375
821.40 0.6374
821.50 0.6373
821.60 0.6371
821.70 0.637
821.80 0.6369
821.90 0.6368
822.00 0.6366
822.10 0.6365
822.20 0.6364
822.30 0.6362
822.40 0.6361
822.50 0.636
822.60 0.6359
822.70 0.6357
822.80 0.6356
822.90 0.6355
823.00 0.6353
823.10 0.6352
823.20 0.6351
823.30 0.635
823.40 0.6348
823.50 0.6347
823.60 0.6346
823.70 0.6344
823.80 0.6343
823.90 0.6342
824.00 0.6341
824.10 0.6339
824.20 0.6338
824.30 0.6337
824.40 0.6335
824.50 0.6334
824.60 0.6333
824.70 0.6332
824.80 0.633
824.90 0.6329
825.00 0.6328
825.10 0.6327
825.20 0.6325
825.30 0.6324
825.40 0.6323
825.50 0.6321
825.60 0.632
825.70 0.6319
825.80 0.6318
825.90 0.6316
826.00 0.6315
826.10 0.6314
826.20 0.6313
826.30 0.6311
826.40 0.631
826.50 0.6309
826.60 0.6307
826.70 0.6306
826.80 0.6305
826.90 0.6304
827.00 0.6302
827.10 0.6301
827.20 0.63
827.30 0.6299
827.40 0.6297
827.50 0.6296
827.60 0.6295
827.70 0.6293
827.80 0.6292
827.90 0.6291
828.00 0.629
828.10 0.6288
828.20 0.6287
828.30 0.6286
828.40 0.6285
828.50 0.6283
828.60 0.6282
828.70 0.6281
828.80 0.6279
828.90 0.6278
829.00 0.6277
829.10 0.6276
829.20 0.6274
829.30 0.6273
829.40 0.6272
829.50 0.6271
829.60 0.6269
829.70 0.6268
829.80 0.6267
829.90 0.6266
830.00 0.6264
830.10 0.6263
830.20 0.6262
830.30 0.626
830.40 0.6259
830.50 0.6258
830.60 0.6257
830.70 0.6255
830.80 0.6254
830.90 0.6253
831.00 0.6252
831.10 0.625
831.20 0.6249
831.30 0.6248
831.40 0.6247
831.50 0.6245
831.60 0.6244
831.70 0.6243
831.80 0.6242
831.90 0.624
832.00 0.6239
832.10 0.6238
832.20 0.6236
832.30 0.6235
832.40 0.6234
832.50 0.6233
832.60 0.6231
832.70 0.623
832.80 0.6229
832.90 0.6228
833.00 0.6226
833.10 0.6225
833.20 0.6224
833.30 0.6223
833.40 0.6221
833.50 0.622
833.60 0.6219
833.70 0.6218
833.80 0.6216
833.90 0.6215
834.00 0.6214
834.10 0.6212
834.20 0.6211
834.30 0.621
834.40 0.6209
834.50 0.6207
834.60 0.6206
834.70 0.6205
834.80 0.6204
834.90 0.6202
835.00 0.6201
835.10 0.62
835.20 0.6199
835.30 0.6197
835.40 0.6196
835.50 0.6195
835.60 0.6194
835.70 0.6192
835.80 0.6191
835.90 0.619
836.00 0.6189
836.10 0.6187
836.20 0.6186
836.30 0.6185
836.40 0.6184
836.50 0.6182
836.60 0.6181
836.70 0.618
836.80 0.6179
836.90 0.6177
837.00 0.6176
837.10 0.6175
837.20 0.6174
837.30 0.6172
837.40 0.6171
837.50 0.617
837.60 0.6169
837.70 0.6167
837.80 0.6166
837.90 0.6165
838.00 0.6164
838.10 0.6162
838.20 0.6161
838.30 0.616
838.40 0.6159
838.50 0.6157
838.60 0.6156
838.70 0.6155
838.80 0.6154
838.90 0.6152
839.00 0.6151
839.10 0.615
839.20 0.6149
839.30 0.6147
839.40 0.6146
839.50 0.6145
839.60 0.6144
839.70 0.6142
839.80 0.6141
839.90 0.614
840.00 0.6139
840.10 0.6137
840.20 0.6136
840.30 0.6135
840.40 0.6134
840.50 0.6132
840.60 0.6131
840.70 0.613
840.80 0.6129
840.90 0.6127
841.00 0.6126
841.10 0.6125
841.20 0.6124
841.30 0.6122
841.40 0.6121
841.50 0.612
841.60 0.6119
841.70 0.6117
841.80 0.6116
841.90 0.6115
842.00 0.6114
842.10 0.6112
842.20 0.6111
842.30 0.611
842.40 0.6109
842.50 0.6107
842.60 0.6106
842.70 0.6105
842.80 0.6104
842.90 0.6102
843.00 0.6101
843.10 0.61
843.20 0.6099
843.30 0.6097
843.40 0.6096
843.50 0.6095
843.60 0.6094
843.70 0.6092
843.80 0.6091
843.90 0.609
844.00 0.6089
844.10 0.6088
844.20 0.6086
844.30 0.6085
844.40 0.6084
844.50 0.6083
844.60 0.6081
844.70 0.608
844.80 0.6079
844.90 0.6078
845.00 0.6076
845.10 0.6075
845.20 0.6074
845.30 0.6073
845.40 0.6071
845.50 0.607
845.60 0.6069
845.70 0.6068
845.80 0.6067
845.90 0.6065
846.00 0.6064
846.10 0.6063
846.20 0.6062
846.30 0.606
846.40 0.6059
846.50 0.6058
846.60 0.6057
846.70 0.6055
846.80 0.6054
846.90 0.6053
847.00 0.6052
847.10 0.6051
847.20 0.6049
847.30 0.6048
847.40 0.6047
847.50 0.6046
847.60 0.6044
847.70 0.6043
847.80 0.6042
847.90 0.6041
848.00 0.6039
848.10 0.6038
848.20 0.6037
848.30 0.6036
848.40 0.6034
848.50 0.6033
848.60 0.6032
848.70 0.6031
848.80 0.603
848.90 0.6028
849.00 0.6027
849.10 0.6026
849.20 0.6025
849.30 0.6023
849.40 0.6022
849.50 0.6021
849.60 0.602
849.70 0.6018
849.80 0.6017
849.90 0.6016
850.00 0.6015
850.10 0.6014
850.20 0.6012
850.30 0.6011
850.40 0.601
850.50 0.6009
850.60 0.6007
850.70 0.6006
850.80 0.6005
850.90 0.6004
851.00 0.6003
851.10 0.6001
851.20 0.6
851.30 0.5999
851.40 0.5998
851.50 0.5996
851.60 0.5995
851.70 0.5994
851.80 0.5993
851.90 0.5992
852.00 0.599
852.10 0.5989
852.20 0.5988
852.30 0.5987
852.40 0.5985
852.50 0.5984
852.60 0.5983
852.70 0.5982
852.80 0.598
852.90 0.5979
853.00 0.5978
853.10 0.5977
853.20 0.5976
853.30 0.5974
853.40 0.5973
853.50 0.5972
853.60 0.5971
853.70 0.5969
853.80 0.5968
853.90 0.5967
854.00 0.5966
854.10 0.5965
854.20 0.5963
854.30 0.5962
854.40 0.5961
854.50 0.596
854.60 0.5958
854.70 0.5957
854.80 0.5956
854.90 0.5955
855.00 0.5954
855.10 0.5952
855.20 0.5951
855.30 0.595
855.40 0.5949
855.50 0.5948
855.60 0.5946
855.70 0.5945
855.80 0.5944
855.90 0.5943
856.00 0.5941
856.10 0.594
856.20 0.5939
856.30 0.5938
856.40 0.5937
856.50 0.5935
856.60 0.5934
856.70 0.5933
856.80 0.5932
856.90 0.5931
857.00 0.5929
857.10 0.5928
857.20 0.5927
857.30 0.5926
857.40 0.5925
857.50 0.5923
857.60 0.5922
857.70 0.5921
857.80 0.592
857.90 0.5918
858.00 0.5917
858.10 0.5916
858.20 0.5915
858.30 0.5914
858.40 0.5912
858.50 0.5911
858.60 0.591
858.70 0.5909
858.80 0.5908
858.90 0.5906
859.00 0.5905
859.10 0.5904
859.20 0.5903
859.30 0.5901
859.40 0.59
859.50 0.5899
859.60 0.5898
859.70 0.5897
859.80 0.5895
859.90 0.5894
860.00 0.5893
860.10 0.5892
860.20 0.5891
860.30 0.5889
860.40 0.5888
860.50 0.5887
860.60 0.5886
860.70 0.5885
860.80 0.5883
860.90 0.5882
861.00 0.5881
861.10 0.588
861.20 0.5879
861.30 0.5877
861.40 0.5876
861.50 0.5875
861.60 0.5874
861.70 0.5873
861.80 0.5871
861.90 0.587
862.00 0.5869
862.10 0.5868
862.20 0.5867
862.30 0.5865
862.40 0.5864
862.50 0.5863
862.60 0.5862
862.70 0.5861
862.80 0.5859
862.90 0.5858
863.00 0.5857
863.10 0.5856
863.20 0.5855
863.30 0.5853
863.40 0.5852
863.50 0.5851
863.60 0.585
863.70 0.5849
863.80 0.5847
863.90 0.5846
864.00 0.5845
864.10 0.5844
864.20 0.5843
864.30 0.5841
864.40 0.584
864.50 0.5839
864.60 0.5838
864.70 0.5837
864.80 0.5835
864.90 0.5834
865.00 0.5833
865.10 0.5832
865.20 0.5831
865.30 0.5829
865.40 0.5828
865.50 0.5827
865.60 0.5826
865.70 0.5825
865.80 0.5823
865.90 0.5822
866.00 0.5821
866.10 0.582
866.20 0.5819
866.30 0.5817
866.40 0.5816
866.50 0.5815
866.60 0.5814
866.70 0.5813
866.80 0.5812
866.90 0.581
867.00 0.5809
867.10 0.5808
867.20 0.5807
867.30 0.5806
867.40 0.5804
867.50 0.5803
867.60 0.5802
867.70 0.5801
867.80 0.58
867.90 0.5798
868.00 0.5797
868.10 0.5796
868.20 0.5795
868.30 0.5794
868.40 0.5792
868.50 0.5791
868.60 0.579
868.70 0.5789
868.80 0.5788
868.90 0.5786
869.00 0.5785
869.10 0.5784
869.20 0.5783
869.30 0.5782
869.40 0.5781
869.50 0.5779
869.60 0.5778
869.70 0.5777
869.80 0.5776
869.90 0.5775
870.00 0.5773
870.10 0.5772
870.20 0.5771
870.30 0.577
870.40 0.5769
870.50 0.5767
870.60 0.5766
870.70 0.5765
870.80 0.5764
870.90 0.5763
871.00 0.5762
871.10 0.576
871.20 0.5759
871.30 0.5758
871.40 0.5757
871.50 0.5756
871.60 0.5754
871.70 0.5753
871.80 0.5752
871.90 0.5751
872.00 0.575
872.10 0.5749
872.20 0.5747
872.30 0.5746
872.40 0.5745
872.50 0.5744
872.60 0.5743
872.70 0.5741
872.80 0.574
872.90 0.5739
873.00 0.5738
873.10 0.5737
873.20 0.5736
873.30 0.5734
873.40 0.5733
873.50 0.5732
873.60 0.5731
873.70 0.573
873.80 0.5728
873.90 0.5727
874.00 0.5726
874.10 0.5725
874.20 0.5724
874.30 0.5723
874.40 0.5721
874.50 0.572
874.60 0.5719
874.70 0.5718
874.80 0.5717
874.90 0.5716
875.00 0.5714
875.10 0.5713
875.20 0.5712
875.30 0.5711
875.40 0.571
875.50 0.5708
875.60 0.5707
875.70 0.5706
875.80 0.5705
875.90 0.5704
876.00 0.5703
876.10 0.5701
876.20 0.57
876.30 0.5699
876.40 0.5698
876.50 0.5697
876.60 0.5696
876.70 0.5694
876.80 0.5693
876.90 0.5692
877.00 0.5691
877.10 0.569
877.20 0.5689
877.30 0.5687
877.40 0.5686
877.50 0.5685
877.60 0.5684
877.70 0.5683
877.80 0.5682
877.90 0.568
878.00 0.5679
878.10 0.5678
878.20 0.5677
878.30 0.5676
878.40 0.5675
878.50 0.5673
878.60 0.5672
878.70 0.5671
878.80 0.567
878.90 0.5669
879.00 0.5668
879.10 0.5666
879.20 0.5665
879.30 0.5664
879.40 0.5663
879.50 0.5662
879.60 0.5661
879.70 0.5659
879.80 0.5658
879.90 0.5657
880.00 0.5656
880.10 0.5655
880.20 0.5654
880.30 0.5652
880.40 0.5651
880.50 0.565
880.60 0.5649
880.70 0.5648
880.80 0.5647
880.90 0.5645
881.00 0.5644
881.10 0.5643
881.20 0.5642
881.30 0.5641
881.40 0.564
881.50 0.5638
881.60 0.5637
881.70 0.5636
881.80 0.5635
881.90 0.5634
882.00 0.5633
882.10 0.5632
882.20 0.563
882.30 0.5629
882.40 0.5628
882.50 0.5627
882.60 0.5626
882.70 0.5625
882.80 0.5623
882.90 0.5622
883.00 0.5621
883.10 0.562
883.20 0.5619
883.30 0.5618
883.40 0.5616
883.50 0.5615
883.60 0.5614
883.70 0.5613
883.80 0.5612
883.90 0.5611
884.00 0.5609
884.10 0.5608
884.20 0.5607
884.30 0.5606
884.40 0.5605
884.50 0.5604
884.60 0.5603
884.70 0.5601
884.80 0.56
884.90 0.5599
885.00 0.5598
885.10 0.5597
885.20 0.5596
885.30 0.5594
885.40 0.5593
885.50 0.5592
885.60 0.5591
885.70 0.559
885.80 0.5589
885.90 0.5588
886.00 0.5586
886.10 0.5585
886.20 0.5584
886.30 0.5583
886.40 0.5582
886.50 0.5581
886.60 0.558
886.70 0.5578
886.80 0.5577
886.90 0.5576
887.00 0.5575
887.10 0.5574
887.20 0.5573
887.30 0.5571
887.40 0.557
887.50 0.5569
887.60 0.5568
887.70 0.5567
887.80 0.5566
887.90 0.5565
888.00 0.5563
888.10 0.5562
888.20 0.5561
888.30 0.556
888.40 0.5559
888.50 0.5558
888.60 0.5557
888.70 0.5555
888.80 0.5554
888.90 0.5553
889.00 0.5552
889.10 0.5551
889.20 0.555
889.30 0.5549
889.40 0.5547
889.50 0.5546
889.60 0.5545
889.70 0.5544
889.80 0.5543
889.90 0.5542
890.00 0.5541
890.10 0.5539
890.20 0.5538
890.30 0.5537
890.40 0.5536
890.50 0.5535
890.60 0.5534
890.70 0.5533
890.80 0.5531
890.90 0.553
891.00 0.5529
891.10 0.5528
891.20 0.5527
891.30 0.5526
891.40 0.5525
891.50 0.5523
891.60 0.5522
891.70 0.5521
891.80 0.552
891.90 0.5519
892.00 0.5518
892.10 0.5517
892.20 0.5515
892.30 0.5514
892.40 0.5513
892.50 0.5512
892.60 0.5511
892.70 0.551
892.80 0.5509
892.90 0.5507
893.00 0.5506
893.10 0.5505
893.20 0.5504
893.30 0.5503
893.40 0.5502
893.50 0.5501
893.60 0.5499
893.70 0.5498
893.80 0.5497
893.90 0.5496
894.00 0.5495
894.10 0.5494
894.20 0.5493
894.30 0.5492
894.40 0.549
894.50 0.5489
894.60 0.5488
894.70 0.5487
894.80 0.5486
894.90 0.5485
895.00 0.5484
895.10 0.5482
895.20 0.5481
895.30 0.548
895.40 0.5479
895.50 0.5478
895.60 0.5477
895.70 0.5476
895.80 0.5475
895.90 0.5473
896.00 0.5472
896.10 0.5471
896.20 0.547
896.30 0.5469
896.40 0.5468
896.50 0.5467
896.60 0.5466
896.70 0.5464
896.80 0.5463
896.90 0.5462
897.00 0.5461
897.10 0.546
897.20 0.5459
897.30 0.5458
897.40 0.5456
897.50 0.5455
897.60 0.5454
897.70 0.5453
897.80 0.5452
897.90 0.5451
898.00 0.545
898.10 0.5449
898.20 0.5447
898.30 0.5446
898.40 0.5445
898.50 0.5444
898.60 0.5443
898.70 0.5442
898.80 0.5441
898.90 0.544
899.00 0.5438
899.10 0.5437
899.20 0.5436
899.30 0.5435
899.40 0.5434
899.50 0.5433
899.60 0.5432
899.70 0.5431
899.80 0.5429
899.90 0.5428
900.00 0.5427
900.10 0.5426
900.20 0.5425
900.30 0.5424
900.40 0.5423
900.50 0.5422
900.60 0.542
900.70 0.5419
900.80 0.5418
900.90 0.5417
901.00 0.5416
901.10 0.5415
901.20 0.5414
901.30 0.5413
901.40 0.5412
901.50 0.541
901.60 0.5409
901.70 0.5408
901.80 0.5407
901.90 0.5406
902.00 0.5405
902.10 0.5404
902.20 0.5403
902.30 0.5402
902.40 0.54
902.50 0.5399
902.60 0.5398
902.70 0.5397
902.80 0.5396
902.90 0.5395
903.00 0.5394
903.10 0.5393
903.20 0.5391
903.30 0.539
903.40 0.5389
903.50 0.5388
903.60 0.5387
903.70 0.5386
903.80 0.5385
903.90 0.5384
904.00 0.5383
904.10 0.5381
904.20 0.538
904.30 0.5379
904.40 0.5378
904.50 0.5377
904.60 0.5376
904.70 0.5375
904.80 0.5374
904.90 0.5372
905.00 0.5371
905.10 0.537
905.20 0.5369
905.30 0.5368
905.40 0.5367
905.50 0.5366
905.60 0.5365
905.70 0.5364
905.80 0.5363
905.90 0.5361
906.00 0.536
906.10 0.5359
906.20 0.5358
906.30 0.5357
906.40 0.5356
906.50 0.5355
906.60 0.5354
906.70 0.5353
906.80 0.5351
906.90 0.535
907.00 0.5349
907.10 0.5348
907.20 0.5347
907.30 0.5346
907.40 0.5345
907.50 0.5344
907.60 0.5343
907.70 0.5341
907.80 0.534
907.90 0.5339
908.00 0.5338
908.10 0.5337
908.20 0.5336
908.30 0.5335
908.40 0.5334
908.50 0.5333
908.60 0.5332
908.70 0.533
908.80 0.5329
908.90 0.5328
909.00 0.5327
909.10 0.5326
909.20 0.5325
909.30 0.5324
909.40 0.5323
909.50 0.5322
909.60 0.532
909.70 0.5319
909.80 0.5318
909.90 0.5317
910.00 0.5316
910.10 0.5315
910.20 0.5314
910.30 0.5313
910.40 0.5312
910.50 0.5311
910.60 0.531
910.70 0.5308
910.80 0.5307
910.90 0.5306
911.00 0.5305
911.10 0.5304
911.20 0.5303
911.30 0.5302
911.40 0.5301
911.50 0.53
911.60 0.5299
911.70 0.5297
911.80 0.5296
911.90 0.5295
912.00 0.5294
912.10 0.5293
912.20 0.5292
912.30 0.5291
912.40 0.529
912.50 0.5289
912.60 0.5288
912.70 0.5286
912.80 0.5285
912.90 0.5284
913.00 0.5283
913.10 0.5282
913.20 0.5281
913.30 0.528
913.40 0.5279
913.50 0.5278
913.60 0.5277
913.70 0.5276
913.80 0.5274
913.90 0.5273
914.00 0.5272
914.10 0.5271
914.20 0.527
914.30 0.5269
914.40 0.5268
914.50 0.5267
914.60 0.5266
914.70 0.5265
914.80 0.5264
914.90 0.5262
915.00 0.5261
915.10 0.526
915.20 0.5259
915.30 0.5258
915.40 0.5257
915.50 0.5256
915.60 0.5255
915.70 0.5254
915.80 0.5253
915.90 0.5252
916.00 0.525
916.10 0.5249
916.20 0.5248
916.30 0.5247
916.40 0.5246
916.50 0.5245
916.60 0.5244
916.70 0.5243
916.80 0.5242
916.90 0.5241
917.00 0.524
917.10 0.5239
917.20 0.5237
917.30 0.5236
917.40 0.5235
917.50 0.5234
917.60 0.5233
917.70 0.5232
917.80 0.5231
917.90 0.523
918.00 0.5229
918.10 0.5228
918.20 0.5227
918.30 0.5225
918.40 0.5224
918.50 0.5223
918.60 0.5222
918.70 0.5221
918.80 0.522
918.90 0.5219
919.00 0.5218
919.10 0.5217
919.20 0.5216
919.30 0.5215
919.40 0.5214
919.50 0.5212
919.60 0.5211
919.70 0.521
919.80 0.5209
919.90 0.5208
920.00 0.5207
920.10 0.5206
920.20 0.5205
920.30 0.5204
920.40 0.5203
920.50 0.5202
920.60 0.5201
920.70 0.52
920.80 0.5198
920.90 0.5197
921.00 0.5196
921.10 0.5195
921.20 0.5194
921.30 0.5193
921.40 0.5192
921.50 0.5191
921.60 0.519
921.70 0.5189
921.80 0.5188
921.90 0.5187
922.00 0.5186
922.10 0.5184
922.20 0.5183
922.30 0.5182
922.40 0.5181
922.50 0.518
922.60 0.5179
922.70 0.5178
922.80 0.5177
922.90 0.5176
923.00 0.5175
923.10 0.5174
923.20 0.5173
923.30 0.5172
923.40 0.5171
923.50 0.5169
923.60 0.5168
923.70 0.5167
923.80 0.5166
923.90 0.5165
924.00 0.5164
924.10 0.5163
924.20 0.5162
924.30 0.5161
924.40 0.516
924.50 0.5159
924.60 0.5158
924.70 0.5157
924.80 0.5156
924.90 0.5154
925.00 0.5153
925.10 0.5152
925.20 0.5151
925.30 0.515
925.40 0.5149
925.50 0.5148
925.60 0.5147
925.70 0.5146
925.80 0.5145
925.90 0.5144
926.00 0.5143
926.10 0.5142
926.20 0.5141
926.30 0.514
926.40 0.5139
926.50 0.5138
926.60 0.5136
926.70 0.5135
926.80 0.5134
926.90 0.5133
927.00 0.5132
927.10 0.5131
927.20 0.513
927.30 0.5129
927.40 0.5128
927.50 0.5127
927.60 0.5126
927.70 0.5125
927.80 0.5124
927.90 0.5123
928.00 0.5122
928.10 0.512
928.20 0.5119
928.30 0.5118
928.40 0.5117
928.50 0.5116
928.60 0.5115
928.70 0.5114
928.80 0.5113
928.90 0.5112
929.00 0.5111
929.10 0.511
929.20 0.5109
929.30 0.5108
929.40 0.5107
929.50 0.5106
929.60 0.5105
929.70 0.5104
929.80 0.5102
929.90 0.5101
930.00 0.51
930.10 0.5099
930.20 0.5098
930.30 0.5097
930.40 0.5096
930.50 0.5095
930.60 0.5094
930.70 0.5093
930.80 0.5092
930.90 0.5091
931.00 0.509
931.10 0.5089
931.20 0.5088
931.30 0.5087
931.40 0.5086
931.50 0.5085
931.60 0.5083
931.70 0.5082
931.80 0.5081
931.90 0.508
932.00 0.5079
932.10 0.5078
932.20 0.5077
932.30 0.5076
932.40 0.5075
932.50 0.5074
932.60 0.5073
932.70 0.5072
932.80 0.5071
932.90 0.507
933.00 0.5069
933.10 0.5068
933.20 0.5067
933.30 0.5066
933.40 0.5065
933.50 0.5063
933.60 0.5062
933.70 0.5061
933.80 0.506
933.90 0.5059
934.00 0.5058
934.10 0.5057
934.20 0.5056
934.30 0.5055
934.40 0.5054
934.50 0.5053
934.60 0.5052
934.70 0.5051
934.80 0.505
934.90 0.5049
935.00 0.5048
935.10 0.5047
935.20 0.5046
935.30 0.5045
935.40 0.5044
935.50 0.5043
935.60 0.5041
935.70 0.504
935.80 0.5039
935.90 0.5038
936.00 0.5037
936.10 0.5036
936.20 0.5035
936.30 0.5034
936.40 0.5033
936.50 0.5032
936.60 0.5031
936.70 0.503
936.80 0.5029
936.90 0.5028
937.00 0.5027
937.10 0.5026
937.20 0.5025
937.30 0.5024
937.40 0.5023
937.50 0.5022
937.60 0.5021
937.70 0.502
937.80 0.5019
937.90 0.5018
938.00 0.5016
938.10 0.5015
938.20 0.5014
938.30 0.5013
938.40 0.5012
938.50 0.5011
938.60 0.501
938.70 0.5009
938.80 0.5008
938.90 0.5007
939.00 0.5006
939.10 0.5005
939.20 0.5004
939.30 0.5003
939.40 0.5002
939.50 0.5001
939.60 0.5
939.70 0.4999
939.80 0.4998
939.90 0.4997
940.00 0.4996
940.10 0.4995
940.20 0.4994
940.30 0.4993
940.40 0.4992
940.50 0.4991
940.60 0.4989
940.70 0.4988
940.80 0.4987
940.90 0.4986
941.00 0.4985
941.10 0.4984
941.20 0.4983
941.30 0.4982
941.40 0.4981
941.50 0.498
941.60 0.4979
941.70 0.4978
941.80 0.4977
941.90 0.4976
942.00 0.4975
942.10 0.4974
942.20 0.4973
942.30 0.4972
942.40 0.4971
942.50 0.497
942.60 0.4969
942.70 0.4968
942.80 0.4967
942.90 0.4966
943.00 0.4965
943.10 0.4964
943.20 0.4963
943.30 0.4962
943.40 0.4961
943.50 0.496
943.60 0.4959
943.70 0.4958
943.80 0.4957
943.90 0.4955
944.00 0.4954
944.10 0.4953
944.20 0.4952
944.30 0.4951
944.40 0.495
944.50 0.4949
944.60 0.4948
944.70 0.4947
944.80 0.4946
944.90 0.4945
945.00 0.4944
945.10 0.4943
945.20 0.4942
945.30 0.4941
945.40 0.494
945.50 0.4939
945.60 0.4938
945.70 0.4937
945.80 0.4936
945.90 0.4935
946.00 0.4934
946.10 0.4933
946.20 0.4932
946.30 0.4931
946.40 0.493
946.50 0.4929
946.60 0.4928
946.70 0.4927
946.80 0.4926
946.90 0.4925
947.00 0.4924
947.10 0.4923
947.20 0.4922
947.30 0.4921
947.40 0.492
947.50 0.4919
947.60 0.4918
947.70 0.4917
947.80 0.4916
947.90 0.4915
948.00 0.4914
948.10 0.4913
948.20 0.4911
948.30 0.491
948.40 0.4909
948.50 0.4908
948.60 0.4907
948.70 0.4906
948.80 0.4905
948.90 0.4904
949.00 0.4903
949.10 0.4902
949.20 0.4901
949.30 0.49
949.40 0.4899
949.50 0.4898
949.60 0.4897
949.70 0.4896
949.80 0.4895
949.90 0.4894
950.00 0.4893
950.10 0.4892
950.20 0.4891
950.30 0.489
950.40 0.4889
950.50 0.4888
950.60 0.4887
950.70 0.4886
950.80 0.4885
950.90 0.4884
951.00 0.4883
951.10 0.4882
951.20 0.4881
951.30 0.488
951.40 0.4879
951.50 0.4878
951.60 0.4877
951.70 0.4876
951.80 0.4875
951.90 0.4874
952.00 0.4873
952.10 0.4872
952.20 0.4871
952.30 0.487
952.40 0.4869
952.50 0.4868
952.60 0.4867
952.70 0.4866
952.80 0.4865
952.90 0.4864
953.00 0.4863
953.10 0.4862
953.20 0.4861
953.30 0.486
953.40 0.4859
953.50 0.4858
953.60 0.4856
953.70 0.4855
953.80 0.4854
953.90 0.4853
954.00 0.4852
954.10 0.485
954.20 0.4849
954.30 0.4848
954.40 0.4847
954.50 0.4846
954.60 0.4846
954.70 0.4845
954.80 0.4844
954.90 0.4843
955.00 0.4842
955.10 0.4841
955.20 0.484
955.30 0.484
955.40 0.4839
955.50 0.4838
955.60 0.4837
955.70 0.4836
955.80 0.4835
955.90 0.4834
956.00 0.4833
956.10 0.4832
956.20 0.4831
956.30 0.483
956.40 0.4829
956.50 0.4828
956.60 0.4827
956.70 0.4826
956.80 0.4825
956.90 0.4824
957.00 0.4823
957.10 0.4822
957.20 0.4821
957.30 0.482
957.40 0.4819
957.50 0.4818
957.60 0.4817
957.70 0.4816
957.80 0.4815
957.90 0.4814
958.00 0.4813
958.10 0.4812
958.20 0.4811
958.30 0.481
958.40 0.4809
958.50 0.4808
958.60 0.4807
958.70 0.4806
958.80 0.4805
958.90 0.4804
959.00 0.4803
959.10 0.4802
959.20 0.4801
959.30 0.48
959.40 0.4799
959.50 0.4798
959.60 0.4797
959.70 0.4796
959.80 0.4795
959.90 0.4794
960.00 0.4793
960.10 0.4792
960.20 0.4791
960.30 0.479
960.40 0.4789
960.50 0.4788
960.60 0.4787
960.70 0.4786
960.80 0.4785
960.90 0.4784
961.00 0.4783
961.10 0.4782
961.20 0.4781
961.30 0.478
961.40 0.4779
961.50 0.4778
961.60 0.4777
961.70 0.4776
961.80 0.4775
961.90 0.4774
962.00 0.4773
962.10 0.4772
962.20 0.4771
962.30 0.477
962.40 0.4769
962.50 0.4768
962.60 0.4767
962.70 0.4766
962.80 0.4765
962.90 0.4764
963.00 0.4763
963.10 0.4762
963.20 0.4761
963.30 0.476
963.40 0.4759
963.50 0.4758
963.60 0.4757
963.70 0.4756
963.80 0.4755
963.90 0.4754
964.00 0.4753
964.10 0.4752
964.20 0.4751
964.30 0.475
964.40 0.4749
964.50 0.4748
964.60 0.4747
964.70 0.4746
964.80 0.4745
964.90 0.4744
965.00 0.4743
965.10 0.4742
965.20 0.4741
965.30 0.474
965.40 0.4739
965.50 0.4738
965.60 0.4738
965.70 0.4737
965.80 0.4736
965.90 0.4735
966.00 0.4734
966.10 0.4733
966.20 0.4732
966.30 0.4731
966.40 0.473
966.50 0.4729
966.60 0.4728
966.70 0.4727
966.80 0.4726
966.90 0.4725
967.00 0.4724
967.10 0.4723
967.20 0.4722
967.30 0.4721
967.40 0.472
967.50 0.4719
967.60 0.4718
967.70 0.4717
967.80 0.4716
967.90 0.4715
968.00 0.4714
968.10 0.4713
968.20 0.4712
968.30 0.4711
968.40 0.471
968.50 0.4709
968.60 0.4708
968.70 0.4707
968.80 0.4706
968.90 0.4705
969.00 0.4704
969.10 0.4703
969.20 0.4702
969.30 0.4701
969.40 0.47
969.50 0.4699
969.60 0.4698
969.70 0.4697
969.80 0.4696
969.90 0.4695
970.00 0.4695
970.10 0.4694
970.20 0.4693
970.30 0.4692
970.40 0.4691
970.50 0.469
970.60 0.4689
970.70 0.4688
970.80 0.4687
970.90 0.4686
971.00 0.4685
971.10 0.4684
971.20 0.4683
971.30 0.4682
971.40 0.4681
971.50 0.468
971.60 0.4679
971.70 0.4678
971.80 0.4677
971.90 0.4676
972.00 0.4675
972.10 0.4674
972.20 0.4673
972.30 0.4672
972.40 0.4671
972.50 0.467
972.60 0.4669
972.70 0.4668
972.80 0.4667
972.90 0.4666
973.00 0.4665
973.10 0.4664
973.20 0.4664
973.30 0.4663
973.40 0.4662
973.50 0.4661
973.60 0.466
973.70 0.4659
973.80 0.4658
973.90 0.4657
974.00 0.4656
974.10 0.4655
974.20 0.4654
974.30 0.4653
974.40 0.4652
974.50 0.4651
974.60 0.465
974.70 0.4649
974.80 0.4648
974.90 0.4647
975.00 0.4646
975.10 0.4645
975.20 0.4644
975.30 0.4643
975.40 0.4642
975.50 0.4641
975.60 0.464
975.70 0.4639
975.80 0.4638
975.90 0.4638
976.00 0.4637
976.10 0.4636
976.20 0.4635
976.30 0.4634
976.40 0.4633
976.50 0.4632
976.60 0.4631
976.70 0.463
976.80 0.4629
976.90 0.4628
977.00 0.4627
977.10 0.4626
977.20 0.4625
977.30 0.4624
977.40 0.4623
977.50 0.4622
977.60 0.4621
977.70 0.462
977.80 0.4619
977.90 0.4618
978.00 0.4617
978.10 0.4616
978.20 0.4615
978.30 0.4615
978.40 0.4614
978.50 0.4613
978.60 0.4612
978.70 0.4611
978.80 0.461
978.90 0.4609
979.00 0.4608
979.10 0.4607
979.20 0.4606
979.30 0.4605
979.40 0.4604
979.50 0.4603
979.60 0.4602
979.70 0.4601
979.80 0.46
979.90 0.4599
980.00 0.4598
980.10 0.4597
980.20 0.4596
980.30 0.4595
980.40 0.4595
980.50 0.4594
980.60 0.4593
980.70 0.4592
980.80 0.4591
980.90 0.459
981.00 0.4589
981.10 0.4588
981.20 0.4587
981.30 0.4586
981.40 0.4585
981.50 0.4584
981.60 0.4583
981.70 0.4582
981.80 0.4581
981.90 0.458
982.00 0.4579
982.10 0.4578
982.20 0.4577
982.30 0.4577
982.40 0.4576
982.50 0.4575
982.60 0.4574
982.70 0.4573
982.80 0.4572
982.90 0.4571
983.00 0.457
983.10 0.4569
983.20 0.4568
983.30 0.4567
983.40 0.4566
983.50 0.4565
983.60 0.4564
983.70 0.4563
983.80 0.4562
983.90 0.4561
984.00 0.456
984.10 0.456
984.20 0.4559
984.30 0.4558
984.40 0.4557
984.50 0.4556
984.60 0.4555
984.70 0.4554
984.80 0.4553
984.90 0.4552
985.00 0.4551
985.10 0.455
985.20 0.4549
985.30 0.4548
985.40 0.4547
985.50 0.4546
985.60 0.4545
985.70 0.4544
985.80 0.4543
985.90 0.4543
986.00 0.4542
986.10 0.4541
986.20 0.454
986.30 0.4539
986.40 0.4538
986.50 0.4537
986.60 0.4536
986.70 0.4535
986.80 0.4534
986.90 0.4533
987.00 0.4532
987.10 0.4531
987.20 0.453
987.30 0.4529
987.40 0.4528
987.50 0.4528
987.60 0.4527
987.70 0.4526
987.80 0.4525
987.90 0.4524
988.00 0.4523
988.10 0.4522
988.20 0.4521
988.30 0.452
988.40 0.4519
988.50 0.4518
988.60 0.4517
988.70 0.4516
988.80 0.4515
988.90 0.4514
989.00 0.4514
989.10 0.4513
989.20 0.4512
989.30 0.4511
989.40 0.451
989.50 0.4509
989.60 0.4508
989.70 0.4507
989.80 0.4506
989.90 0.4505
990.00 0.4504
990.10 0.4503
990.20 0.4502
990.30 0.4501
990.40 0.45
990.50 0.45
990.60 0.4499
990.70 0.4498
990.80 0.4497
990.90 0.4496
991.00 0.4495
991.10 0.4494
991.20 0.4493
991.30 0.4492
991.40 0.4491
991.50 0.449
991.60 0.4489
991.70 0.4488
991.80 0.4487
991.90 0.4487
992.00 0.4486
992.10 0.4485
992.20 0.4484
992.30 0.4483
992.40 0.4482
992.50 0.4481
992.60 0.448
992.70 0.4479
992.80 0.4478
992.90 0.4477
993.00 0.4476
993.10 0.4475
993.20 0.4475
993.30 0.4474
993.40 0.4473
993.50 0.4472
993.60 0.4471
993.70 0.447
993.80 0.4469
993.90 0.4468
994.00 0.4467
994.10 0.4466
994.20 0.4465
994.30 0.4464
994.40 0.4463
994.50 0.4463
994.60 0.4462
994.70 0.4461
994.80 0.446
994.90 0.4459
995.00 0.4458
995.10 0.4457
995.20 0.4456
995.30 0.4455
995.40 0.4454
995.50 0.4453
995.60 0.4452
995.70 0.4452
995.80 0.4451
995.90 0.445
996.00 0.4449
996.10 0.4448
996.20 0.4447
996.30 0.4446
996.40 0.4445
996.50 0.4444
996.60 0.4443
996.70 0.4442
996.80 0.4441
996.90 0.444
997.00 0.444
997.10 0.4439
997.20 0.4438
997.30 0.4437
997.40 0.4436
997.50 0.4435
997.60 0.4434
997.70 0.4433
997.80 0.4432
997.90 0.4431
998.00 0.443
998.10 0.4429
998.20 0.4429
998.30 0.4428
998.40 0.4427
998.50 0.4426
998.60 0.4425
998.70 0.4424
998.80 0.4423
998.90 0.4422
999.00 0.4421
999.10 0.442
999.20 0.4419
999.30 0.4419
999.40 0.4418
999.50 0.4417
999.60 0.4416
999.70 0.4415
999.80 0.4414
999.90 0.4413
1000.00 0.4412
1000.10 0.4411
1000.20 0.441
1000.30 0.4409
1000.40 0.4409
1000.50 0.4408
1000.60 0.4407
1000.70 0.4406
1000.80 0.4405
1000.90 0.4404
1001.00 0.4403
1001.10 0.4402
1001.20 0.4401
1001.30 0.44
1001.40 0.4399
1001.50 0.4399
1001.60 0.4398
1001.70 0.4397
1001.80 0.4396
1001.90 0.4395
1002.00 0.4394
1002.10 0.4393
1002.20 0.4392
1002.30 0.4391
1002.40 0.439
1002.50 0.4389
1002.60 0.4388
1002.70 0.4387
1002.80 0.4387
1002.90 0.4386
1003.00 0.4385
1003.10 0.4384
1003.20 0.4383
1003.30 0.4382
1003.40 0.4381
1003.50 0.438
1003.60 0.4379
1003.70 0.4378
1003.80 0.4377
1003.90 0.4376
1004.00 0.4374
1004.10 0.4373
1004.20 0.4372
1004.30 0.437
1004.40 0.4368
1004.50 0.4366
1004.60 0.4364
1004.70 0.4364
1004.80 0.4364
1004.90 0.4364
1005.00 0.4364
1005.10 0.4364
1005.20 0.4363
1005.30 0.4363
1005.40 0.4362
1005.50 0.4362
1005.60 0.4361
1005.70 0.436
1005.80 0.4359
1005.90 0.4358
1006.00 0.4358
1006.10 0.4357
1006.20 0.4356
1006.30 0.4355
1006.40 0.4354
1006.50 0.4353
1006.60 0.4352
1006.70 0.4351
1006.80 0.4351
1006.90 0.435
1007.00 0.4349
1007.10 0.4348
1007.20 0.4347
1007.30 0.4346
1007.40 0.4345
1007.50 0.4344
1007.60 0.4343
1007.70 0.4343
1007.80 0.4342
1007.90 0.4341
1008.00 0.434
1008.10 0.4339
1008.20 0.4338
1008.30 0.4337
1008.40 0.4336
1008.50 0.4335
1008.60 0.4335
1008.70 0.4334
1008.80 0.4333
1008.90 0.4332
1009.00 0.4331
1009.10 0.433
1009.20 0.4329
1009.30 0.4328
1009.40 0.4327
1009.50 0.4327
1009.60 0.4326
1009.70 0.4325
1009.80 0.4324
1009.90 0.4323
1010.00 0.4322
1010.10 0.4321
1010.20 0.432
1010.30 0.4319
1010.40 0.4319
1010.50 0.4318
1010.60 0.4317
1010.70 0.4316
1010.80 0.4315
1010.90 0.4314
1011.00 0.4313
1011.10 0.4312
1011.20 0.4311
1011.30 0.4311
1011.40 0.431
1011.50 0.4309
1011.60 0.4308
1011.70 0.4307
1011.80 0.4306
1011.90 0.4305
1012.00 0.4304
1012.10 0.4303
1012.20 0.4303
1012.30 0.4302
1012.40 0.4301
1012.50 0.43
1012.60 0.4299
1012.70 0.4298
1012.80 0.4297
1012.90 0.4296
1013.00 0.4295
1013.10 0.4295
1013.20 0.4294
1013.30 0.4293
1013.40 0.4292
1013.50 0.4291
1013.60 0.429
1013.70 0.4289
1013.80 0.4288
1013.90 0.4288
1014.00 0.4287
1014.10 0.4286
1014.20 0.4285
1014.30 0.4284
1014.40 0.4283
1014.50 0.4282
1014.60 0.4281
1014.70 0.428
1014.80 0.428
1014.90 0.4279
1015.00 0.4278
1015.10 0.4277
1015.20 0.4276
1015.30 0.4275
1015.40 0.4274
1015.50 0.4273
1015.60 0.4273
1015.70 0.4272
1015.80 0.4271
1015.90 0.427
1016.00 0.4269
1016.10 0.4268
1016.20 0.4267
1016.30 0.4266
1016.40 0.4266
1016.50 0.4265
1016.60 0.4264
1016.70 0.4263
1016.80 0.4262
1016.90 0.4261
1017.00 0.426
1017.10 0.4259
1017.20 0.4258
1017.30 0.4258
1017.40 0.4257
1017.50 0.4256
1017.60 0.4255
1017.70 0.4254
1017.80 0.4253
1017.90 0.4252
1018.00 0.4251
1018.10 0.4251
1018.20 0.425
1018.30 0.4249
1018.40 0.4248
1018.50 0.4247
1018.60 0.4246
1018.70 0.4245
1018.80 0.4244
1018.90 0.4244
1019.00 0.4243
1019.10 0.4242
1019.20 0.4241
1019.30 0.424
1019.40 0.4239
1019.50 0.4238
1019.60 0.4237
1019.70 0.4237
1019.80 0.4236
1019.90 0.4235
1020.00 0.4234
1020.10 0.4233
1020.20 0.4232
1020.30 0.4231
1020.40 0.4231
1020.50 0.423
1020.60 0.4229
1020.70 0.4228
1020.80 0.4227
1020.90 0.4226
1021.00 0.4225
1021.10 0.4224
1021.20 0.4224
1021.30 0.4223
1021.40 0.4222
1021.50 0.4221
1021.60 0.422
1021.70 0.4219
1021.80 0.4218
1021.90 0.4218
1022.00 0.4217
1022.10 0.4216
1022.20 0.4215
1022.30 0.4214
1022.40 0.4213
1022.50 0.4212
1022.60 0.4211
1022.70 0.4211
1022.80 0.421
1022.90 0.4209
1023.00 0.4208
1023.10 0.4207
1023.20 0.4206
1023.30 0.4205
1023.40 0.4205
1023.50 0.4204
1023.60 0.4203
1023.70 0.4202
1023.80 0.4201
1023.90 0.42
1024.00 0.4199
1024.10 0.4198
1024.20 0.4198
1024.30 0.4197
1024.40 0.4196
1024.50 0.4195
1024.60 0.4194
1024.70 0.4193
1024.80 0.4192
1024.90 0.4192
1025.00 0.4191
1025.10 0.419
1025.20 0.4189
1025.30 0.4188
1025.40 0.4187
1025.50 0.4186
1025.60 0.4186
1025.70 0.4185
1025.80 0.4184
1025.90 0.4183
1026.00 0.4182
1026.10 0.4181
1026.20 0.418
1026.30 0.418
1026.40 0.4179
1026.50 0.4178
1026.60 0.4177
1026.70 0.4176
1026.80 0.4175
1026.90 0.4174
1027.00 0.4174
1027.10 0.4173
1027.20 0.4172
1027.30 0.4171
1027.40 0.417
1027.50 0.4169
1027.60 0.4168
1027.70 0.4168
1027.80 0.4167
1027.90 0.4166
1028.00 0.4165
1028.10 0.4164
1028.20 0.4163
1028.30 0.4162
1028.40 0.4162
1028.50 0.4161
1028.60 0.416
1028.70 0.4159
1028.80 0.4158
1028.90 0.4157
1029.00 0.4156
1029.10 0.4156
1029.20 0.4155
1029.30 0.4154
1029.40 0.4153
1029.50 0.4152
1029.60 0.4151
1029.70 0.415
1029.80 0.415
1029.90 0.4149
1030.00 0.4148
1030.10 0.4147
1030.20 0.4146
1030.30 0.4145
1030.40 0.4145
1030.50 0.4144
1030.60 0.4143
1030.70 0.4142
1030.80 0.4141
1030.90 0.414
1031.00 0.4139
1031.10 0.4139
1031.20 0.4138
1031.30 0.4137
1031.40 0.4136
1031.50 0.4135
1031.60 0.4134
1031.70 0.4133
1031.80 0.4133
1031.90 0.4132
1032.00 0.4131
1032.10 0.413
1032.20 0.4129
1032.30 0.4128
1032.40 0.4128
1032.50 0.4127
1032.60 0.4126
1032.70 0.4125
1032.80 0.4124
1032.90 0.4123
1033.00 0.4122
1033.10 0.4122
1033.20 0.4121
1033.30 0.412
1033.40 0.4119
1033.50 0.4118
1033.60 0.4117
1033.70 0.4117
1033.80 0.4116
1033.90 0.4115
1034.00 0.4114
1034.10 0.4113
1034.20 0.4112
1034.30 0.4111
1034.40 0.4111
1034.50 0.411
1034.60 0.4109
1034.70 0.4108
1034.80 0.4107
1034.90 0.4106
1035.00 0.4106
1035.10 0.4105
1035.20 0.4104
1035.30 0.4103
1035.40 0.4102
1035.50 0.4101
1035.60 0.4101
1035.70 0.41
1035.80 0.4099
1035.90 0.4098
1036.00 0.4097
1036.10 0.4096
1036.20 0.4095
1036.30 0.4095
1036.40 0.4094
1036.50 0.4093
1036.60 0.4092
1036.70 0.4091
1036.80 0.409
1036.90 0.409
1037.00 0.4089
1037.10 0.4088
1037.20 0.4087
1037.30 0.4086
1037.40 0.4085
1037.50 0.4085
1037.60 0.4084
1037.70 0.4083
1037.80 0.4082
1037.90 0.4081
1038.00 0.408
1038.10 0.408
1038.20 0.4079
1038.30 0.4078
1038.40 0.4077
1038.50 0.4076
1038.60 0.4075
1038.70 0.4075
1038.80 0.4074
1038.90 0.4073
1039.00 0.4072
1039.10 0.4071
1039.20 0.407
1039.30 0.407
1039.40 0.4069
1039.50 0.4068
1039.60 0.4067
1039.70 0.4066
1039.80 0.4065
1039.90 0.4065
1040.00 0.4064
1040.10 0.4063
1040.20 0.4062
1040.30 0.4061
1040.40 0.406
1040.50 0.406
1040.60 0.4059
1040.70 0.4058
1040.80 0.4057
1040.90 0.4056
1041.00 0.4055
1041.10 0.4055
1041.20 0.4054
1041.30 0.4053
1041.40 0.4052
1041.50 0.4051
1041.60 0.405
1041.70 0.405
1041.80 0.4049
1041.90 0.4048
1042.00 0.4047
1042.10 0.4046
1042.20 0.4045
1042.30 0.4045
1042.40 0.4044
1042.50 0.4043
1042.60 0.4042
1042.70 0.4041
1042.80 0.404
1042.90 0.404
1043.00 0.4039
1043.10 0.4038
1043.20 0.4037
1043.30 0.4036
1043.40 0.4036
1043.50 0.4035
1043.60 0.4034
1043.70 0.4033
1043.80 0.4032
1043.90 0.4031
1044.00 0.4031
1044.10 0.403
1044.20 0.4029
1044.30 0.4028
1044.40 0.4027
1044.50 0.4026
1044.60 0.4026
1044.70 0.4025
1044.80 0.4024
1044.90 0.4023
1045.00 0.4022
1045.10 0.4022
1045.20 0.4021
1045.30 0.402
1045.40 0.4019
1045.50 0.4018
1045.60 0.4017
1045.70 0.4017
1045.80 0.4016
1045.90 0.4015
1046.00 0.4014
1046.10 0.4013
1046.20 0.4012
1046.30 0.4012
1046.40 0.4011
1046.50 0.401
1046.60 0.4009
1046.70 0.4008
1046.80 0.4008
1046.90 0.4007
1047.00 0.4006
1047.10 0.4005
1047.20 0.4004
1047.30 0.4003
1047.40 0.4003
1047.50 0.4002
1047.60 0.4001
1047.70 0.4
1047.80 0.3999
1047.90 0.3999
1048.00 0.3998
1048.10 0.3997
1048.20 0.3996
1048.30 0.3995
1048.40 0.3994
1048.50 0.3994
1048.60 0.3993
1048.70 0.3992
1048.80 0.3991
1048.90 0.399
1049.00 0.399
1049.10 0.3989
1049.20 0.3988
1049.30 0.3987
1049.40 0.3986
1049.50 0.3985
1049.60 0.3985
1049.70 0.3984
1049.80 0.3983
1049.90 0.3982
1050.00 0.3981
1050.10 0.3981
1050.20 0.398
1050.30 0.3979
1050.40 0.3978
1050.50 0.3977
1050.60 0.3977
1050.70 0.3976
1050.80 0.3975
1050.90 0.3974
1051.00 0.3973
1051.10 0.3972
1051.20 0.3972
1051.30 0.3971
1051.40 0.397
1051.50 0.3969
1051.60 0.3968
1051.70 0.3968
1051.80 0.3967
1051.90 0.3966
1052.00 0.3965
1052.10 0.3964
1052.20 0.3964
1052.30 0.3963
1052.40 0.3962
1052.50 0.3961
1052.60 0.396
1052.70 0.396
1052.80 0.3959
1052.90 0.3958
1053.00 0.3957
1053.10 0.3956
1053.20 0.3955
1053.30 0.3955
1053.40 0.3954
1053.50 0.3953
1053.60 0.3952
1053.70 0.3951
1053.80 0.3951
1053.90 0.395
1054.00 0.3949
1054.10 0.3948
1054.20 0.3947
1054.30 0.3947
1054.40 0.3946
1054.50 0.3945
1054.60 0.3944
1054.70 0.3943
1054.80 0.3943
1054.90 0.3942
1055.00 0.3941
1055.10 0.394
1055.20 0.3939
1055.30 0.3939
1055.40 0.3938
1055.50 0.3937
1055.60 0.3936
1055.70 0.3935
1055.80 0.3935
1055.90 0.3934
1056.00 0.3933
1056.10 0.3932
1056.20 0.3931
1056.30 0.3931
1056.40 0.393
1056.50 0.3929
1056.60 0.3928
1056.70 0.3927
1056.80 0.3927
1056.90 0.3926
1057.00 0.3925
1057.10 0.3924
1057.20 0.3923
1057.30 0.3923
1057.40 0.3922
1057.50 0.3921
1057.60 0.392
1057.70 0.3919
1057.80 0.3919
1057.90 0.3918
1058.00 0.3917
1058.10 0.3916
1058.20 0.3915
1058.30 0.3915
1058.40 0.3914
1058.50 0.3913
1058.60 0.3912
1058.70 0.3911
1058.80 0.3911
1058.90 0.391
1059.00 0.3909
1059.10 0.3908
1059.20 0.3907
1059.30 0.3907
1059.40 0.3906
1059.50 0.3905
1059.60 0.3904
1059.70 0.3903
1059.80 0.3903
1059.90 0.3902
1060.00 0.3901
1060.10 0.39
1060.20 0.3899
1060.30 0.3899
1060.40 0.3898
1060.50 0.3897
1060.60 0.3896
1060.70 0.3895
1060.80 0.3895
1060.90 0.3894
1061.00 0.3893
1061.10 0.3892
1061.20 0.3891
1061.30 0.3891
1061.40 0.389
1061.50 0.3889
1061.60 0.3888
1061.70 0.3888
1061.80 0.3887
1061.90 0.3886
1062.00 0.3885
1062.10 0.3884
1062.20 0.3884
1062.30 0.3883
1062.40 0.3882
1062.50 0.3881
1062.60 0.388
1062.70 0.388
1062.80 0.3879
1062.90 0.3878
1063.00 0.3877
1063.10 0.3876
1063.20 0.3876
1063.30 0.3875
1063.40 0.3874
1063.50 0.3873
1063.60 0.3873
1063.70 0.3872
1063.80 0.3871
1063.90 0.387
1064.00 0.3869
1064.10 0.3869
1064.20 0.3868
1064.30 0.3867
1064.40 0.3866
1064.50 0.3865
1064.60 0.3865
1064.70 0.3864
1064.80 0.3863
1064.90 0.3862
1065.00 0.3861
1065.10 0.3861
1065.20 0.386
1065.30 0.3859
1065.40 0.3858
1065.50 0.3858
1065.60 0.3857
1065.70 0.3856
1065.80 0.3855
1065.90 0.3854
1066.00 0.3854
1066.10 0.3853
1066.20 0.3852
1066.30 0.3851
1066.40 0.3851
1066.50 0.385
1066.60 0.3849
1066.70 0.3848
1066.80 0.3847
1066.90 0.3847
1067.00 0.3846
1067.10 0.3845
1067.20 0.3844
1067.30 0.3843
1067.40 0.3843
1067.50 0.3842
1067.60 0.3841
1067.70 0.384
1067.80 0.384
1067.90 0.3839
1068.00 0.3838
1068.10 0.3837
1068.20 0.3836
1068.30 0.3836
1068.40 0.3835
1068.50 0.3834
1068.60 0.3833
1068.70 0.3833
1068.80 0.3832
1068.90 0.3831
1069.00 0.383
1069.10 0.3829
1069.20 0.3829
1069.30 0.3828
1069.40 0.3827
1069.50 0.3826
1069.60 0.3826
1069.70 0.3825
1069.80 0.3824
1069.90 0.3823
1070.00 0.3822
1070.10 0.3822
1070.20 0.3821
1070.30 0.382
1070.40 0.3819
1070.50 0.3819
1070.60 0.3818
1070.70 0.3817
1070.80 0.3816
1070.90 0.3815
1071.00 0.3815
1071.10 0.3814
1071.20 0.3813
1071.30 0.3812
1071.40 0.3812
1071.50 0.3811
1071.60 0.381
1071.70 0.3809
1071.80 0.3808
1071.90 0.3808
1072.00 0.3807
1072.10 0.3806
1072.20 0.3805
1072.30 0.3805
1072.40 0.3804
1072.50 0.3803
1072.60 0.3802
1072.70 0.3802
1072.80 0.3801
1072.90 0.38
1073.00 0.3799
1073.10 0.3798
1073.20 0.3798
1073.30 0.3797
1073.40 0.3796
1073.50 0.3795
1073.60 0.3795
1073.70 0.3794
1073.80 0.3793
1073.90 0.3792
1074.00 0.3792
1074.10 0.3791
1074.20 0.379
1074.30 0.3789
1074.40 0.3788
1074.50 0.3788
1074.60 0.3787
1074.70 0.3786
1074.80 0.3785
1074.90 0.3785
1075.00 0.3784
1075.10 0.3783
1075.20 0.3782
1075.30 0.3782
1075.40 0.3781
1075.50 0.378
1075.60 0.3779
1075.70 0.3778
1075.80 0.3778
1075.90 0.3777
1076.00 0.3776
1076.10 0.3775
1076.20 0.3775
1076.30 0.3774
1076.40 0.3773
1076.50 0.3772
1076.60 0.3772
1076.70 0.3771
1076.80 0.377
1076.90 0.3769
1077.00 0.3769
1077.10 0.3768
1077.20 0.3767
1077.30 0.3766
1077.40 0.3765
1077.50 0.3765
1077.60 0.3764
1077.70 0.3763
1077.80 0.3762
1077.90 0.3762
1078.00 0.3761
1078.10 0.376
1078.20 0.3759
1078.30 0.3759
1078.40 0.3758
1078.50 0.3757
1078.60 0.3756
1078.70 0.3756
1078.80 0.3755
1078.90 0.3754
1079.00 0.3753
1079.10 0.3753
1079.20 0.3752
1079.30 0.3751
1079.40 0.375
1079.50 0.3749
1079.60 0.3749
1079.70 0.3748
1079.80 0.3747
1079.90 0.3746
1080.00 0.3746
1080.10 0.3745
1080.20 0.3744
1080.30 0.3743
1080.40 0.3743
1080.50 0.3742
1080.60 0.3741
1080.70 0.374
1080.80 0.374
1080.90 0.3739
1081.00 0.3738
1081.10 0.3737
1081.20 0.3737
1081.30 0.3736
1081.40 0.3735
1081.50 0.3734
1081.60 0.3734
1081.70 0.3733
1081.80 0.3732
1081.90 0.3731
1082.00 0.3731
1082.10 0.373
1082.20 0.3729
1082.30 0.3728
1082.40 0.3728
1082.50 0.3727
1082.60 0.3726
1082.70 0.3725
1082.80 0.3725
1082.90 0.3724
1083.00 0.3723
1083.10 0.3722
1083.20 0.3721
1083.30 0.3721
1083.40 0.372
1083.50 0.3719
1083.60 0.3718
1083.70 0.3718
1083.80 0.3717
1083.90 0.3716
1084.00 0.3715
1084.10 0.3715
1084.20 0.3714
1084.30 0.3713
1084.40 0.3712
1084.50 0.3712
1084.60 0.3711
1084.70 0.371
1084.80 0.3709
1084.90 0.3709
1085.00 0.3708
1085.10 0.3707
1085.20 0.3706
1085.30 0.3706
1085.40 0.3705
1085.50 0.3704
1085.60 0.3703
1085.70 0.3703
1085.80 0.3702
1085.90 0.3701
1086.00 0.37
1086.10 0.37
1086.20 0.3699
1086.30 0.3698
1086.40 0.3697
1086.50 0.3697
1086.60 0.3696
1086.70 0.3695
1086.80 0.3694
1086.90 0.3694
1087.00 0.3693
1087.10 0.3692
1087.20 0.3691
1087.30 0.3691
1087.40 0.369
1087.50 0.3689
1087.60 0.3689
1087.70 0.3688
1087.80 0.3687
1087.90 0.3686
1088.00 0.3686
1088.10 0.3685
1088.20 0.3684
1088.30 0.3683
1088.40 0.3683
1088.50 0.3682
1088.60 0.3681
1088.70 0.368
1088.80 0.368
1088.90 0.3679
1089.00 0.3678
1089.10 0.3677
1089.20 0.3677
1089.30 0.3676
1089.40 0.3675
1089.50 0.3674
1089.60 0.3674
1089.70 0.3673
1089.80 0.3672
1089.90 0.3671
1090.00 0.3671
1090.10 0.367
1090.20 0.3669
1090.30 0.3668
1090.40 0.3668
1090.50 0.3667
1090.60 0.3666
1090.70 0.3665
1090.80 0.3665
1090.90 0.3664
1091.00 0.3663
1091.10 0.3662
1091.20 0.3662
1091.30 0.3661
1091.40 0.366
1091.50 0.3659
1091.60 0.3659
1091.70 0.3658
1091.80 0.3657
1091.90 0.3656
1092.00 0.3655
1092.10 0.3655
1092.20 0.3654
1092.30 0.3653
1092.40 0.3652
1092.50 0.3651
1092.60 0.365
1092.70 0.3649
1092.80 0.3647
1092.90 0.3645
1093.00 0.3644
1093.10 0.3641
1093.20 0.3638
1093.30 0.3635
1093.40 0.3631
1093.50 0.3629
1093.60 0.3631
1093.70 0.3634
1093.80 0.3635
1093.90 0.3637
1094.00 0.3637
1094.10 0.3637
1094.20 0.3637
1094.30 0.3637
1094.40 0.3637
1094.50 0.3636
1094.60 0.3636
1094.70 0.3635
1094.80 0.3635
1094.90 0.3634
1095.00 0.3633
1095.10 0.3633
1095.20 0.3632
1095.30 0.3631
1095.40 0.3631
1095.50 0.363
1095.60 0.3629
1095.70 0.3628
1095.80 0.3628
1095.90 0.3627
1096.00 0.3626
1096.10 0.3626
1096.20 0.3625
1096.30 0.3624
1096.40 0.3623
1096.50 0.3623
1096.60 0.3622
1096.70 0.3621
1096.80 0.3621
1096.90 0.362
1097.00 0.3619
1097.10 0.3618
1097.20 0.3618
1097.30 0.3617
1097.40 0.3616
1097.50 0.3616
1097.60 0.3615
1097.70 0.3614
1097.80 0.3613
1097.90 0.3613
1098.00 0.3612
1098.10 0.3611
1098.20 0.361
1098.30 0.361
1098.40 0.3609
1098.50 0.3608
1098.60 0.3608
1098.70 0.3607
1098.80 0.3606
1098.90 0.3605
1099.00 0.3605
1099.10 0.3604
1099.20 0.3603
1099.30 0.3602
1099.40 0.3602
1099.50 0.3601
1099.60 0.36
1099.70 0.36
1099.80 0.3599
1099.90 0.3598
1100.00 0.3597
1100.10 0.3597
1100.20 0.3596
1100.30 0.3595
1100.40 0.3595
1100.50 0.3594
1100.60 0.3593
1100.70 0.3592
1100.80 0.3592
1100.90 0.3591
1101.00 0.359
1101.10 0.3589
1101.20 0.3589
1101.30 0.3588
1101.40 0.3587
1101.50 0.3587
1101.60 0.3586
1101.70 0.3585
1101.80 0.3584
1101.90 0.3584
1102.00 0.3583
1102.10 0.3582
1102.20 0.3581
1102.30 0.3581
1102.40 0.358
1102.50 0.3579
1102.60 0.3579
1102.70 0.3578
1102.80 0.3577
1102.90 0.3576
1103.00 0.3576
1103.10 0.3575
1103.20 0.3574
1103.30 0.3574
1103.40 0.3573
1103.50 0.3572
1103.60 0.3571
1103.70 0.3571
1103.80 0.357
1103.90 0.3569
1104.00 0.3569
1104.10 0.3568
1104.20 0.3567
1104.30 0.3566
1104.40 0.3566
1104.50 0.3565
1104.60 0.3564
1104.70 0.3564
1104.80 0.3563
1104.90 0.3562
1105.00 0.3561
1105.10 0.3561
1105.20 0.356
1105.30 0.3559
1105.40 0.3559
1105.50 0.3558
1105.60 0.3557
1105.70 0.3556
1105.80 0.3556
1105.90 0.3555
1106.00 0.3554
1106.10 0.3554
1106.20 0.3553
1106.30 0.3552
1106.40 0.3551
1106.50 0.3551
1106.60 0.355
1106.70 0.3549
1106.80 0.3549
1106.90 0.3548
1107.00 0.3547
1107.10 0.3546
1107.20 0.3546
1107.30 0.3545
1107.40 0.3544
1107.50 0.3544
1107.60 0.3543
1107.70 0.3542
1107.80 0.3541
1107.90 0.3541
1108.00 0.354
1108.10 0.3539
1108.20 0.3539
1108.30 0.3538
1108.40 0.3537
1108.50 0.3536
1108.60 0.3536
1108.70 0.3535
1108.80 0.3534
1108.90 0.3534
1109.00 0.3533
1109.10 0.3532
1109.20 0.3531
1109.30 0.3531
1109.40 0.353
1109.50 0.3529
1109.60 0.3529
1109.70 0.3528
1109.80 0.3527
1109.90 0.3526
1110.00 0.3526
1110.10 0.3525
1110.20 0.3524
1110.30 0.3524
1110.40 0.3523
1110.50 0.3522
1110.60 0.3522
1110.70 0.3521
1110.80 0.352
1110.90 0.3519
1111.00 0.3519
1111.10 0.3518
1111.20 0.3517
1111.30 0.3517
1111.40 0.3516
1111.50 0.3515
1111.60 0.3514
1111.70 0.3514
1111.80 0.3513
1111.90 0.3512
1112.00 0.3512
1112.10 0.3511
1112.20 0.351
1112.30 0.351
1112.40 0.3509
1112.50 0.3508
1112.60 0.3507
1112.70 0.3507
1112.80 0.3506
1112.90 0.3505
1113.00 0.3505
1113.10 0.3504
1113.20 0.3503
1113.30 0.3503
1113.40 0.3502
1113.50 0.3501
1113.60 0.35
1113.70 0.35
1113.80 0.3499
1113.90 0.3498
1114.00 0.3498
1114.10 0.3497
1114.20 0.3496
1114.30 0.3496
1114.40 0.3495
1114.50 0.3494
1114.60 0.3493
1114.70 0.3493
1114.80 0.3492
1114.90 0.3491
1115.00 0.3491
1115.10 0.349
1115.20 0.3489
1115.30 0.3489
1115.40 0.3488
1115.50 0.3487
1115.60 0.3486
1115.70 0.3486
1115.80 0.3485
1115.90 0.3484
1116.00 0.3484
1116.10 0.3483
1116.20 0.3482
1116.30 0.3482
1116.40 0.3481
1116.50 0.348
1116.60 0.3479
1116.70 0.3479
1116.80 0.3478
1116.90 0.3477
1117.00 0.3477
1117.10 0.3476
1117.20 0.3475
1117.30 0.3475
1117.40 0.3474
1117.50 0.3473
1117.60 0.3473
1117.70 0.3472
1117.80 0.3471
1117.90 0.347
1118.00 0.347
1118.10 0.3469
1118.20 0.3468
1118.30 0.3468
1118.40 0.3467
1118.50 0.3466
1118.60 0.3466
1118.70 0.3465
1118.80 0.3464
1118.90 0.3464
1119.00 0.3463
1119.10 0.3462
1119.20 0.3461
1119.30 0.3461
1119.40 0.346
1119.50 0.3459
1119.60 0.3459
1119.70 0.3458
1119.80 0.3457
1119.90 0.3457
1120.00 0.3456
1120.10 0.3455
1120.20 0.3455
1120.30 0.3454
1120.40 0.3453
1120.50 0.3452
1120.60 0.3452
1120.70 0.3451
1120.80 0.345
1120.90 0.345
1121.00 0.3449
1121.10 0.3448
1121.20 0.3448
1121.30 0.3447
1121.40 0.3446
1121.50 0.3446
1121.60 0.3445
1121.70 0.3444
1121.80 0.3444
1121.90 0.3443
1122.00 0.3442
1122.10 0.3441
1122.20 0.3441
1122.30 0.344
1122.40 0.3439
1122.50 0.3439
1122.60 0.3438
1122.70 0.3437
1122.80 0.3437
1122.90 0.3436
1123.00 0.3435
1123.10 0.3435
1123.20 0.3434
1123.30 0.3433
1123.40 0.3433
1123.50 0.3432
1123.60 0.3431
1123.70 0.343
1123.80 0.343
1123.90 0.3429
1124.00 0.3428
1124.10 0.3428
1124.20 0.3427
1124.30 0.3426
1124.40 0.3426
1124.50 0.3425
1124.60 0.3424
1124.70 0.3424
1124.80 0.3423
1124.90 0.3422
1125.00 0.3422
1125.10 0.3421
1125.20 0.342
1125.30 0.342
1125.40 0.3419
1125.50 0.3418
1125.60 0.3417
1125.70 0.3417
1125.80 0.3416
1125.90 0.3415
1126.00 0.3415
1126.10 0.3414
1126.20 0.3413
1126.30 0.3413
1126.40 0.3412
1126.50 0.3411
1126.60 0.3411
1126.70 0.341
1126.80 0.3409
1126.90 0.3409
1127.00 0.3408
1127.10 0.3407
1127.20 0.3407
1127.30 0.3406
1127.40 0.3405
1127.50 0.3405
1127.60 0.3404
1127.70 0.3403
1127.80 0.3402
1127.90 0.3402
1128.00 0.3401
1128.10 0.34
1128.20 0.34
1128.30 0.3399
1128.40 0.3398
1128.50 0.3398
1128.60 0.3397
1128.70 0.3396
1128.80 0.3396
1128.90 0.3395
1129.00 0.3394
1129.10 0.3394
1129.20 0.3393
1129.30 0.3392
1129.40 0.3392
1129.50 0.3391
1129.60 0.339
1129.70 0.339
1129.80 0.3389
1129.90 0.3388
1130.00 0.3388
1130.10 0.3387
1130.20 0.3386
1130.30 0.3386
1130.40 0.3385
1130.50 0.3384
1130.60 0.3384
1130.70 0.3383
1130.80 0.3382
1130.90 0.3382
1131.00 0.3381
1131.10 0.338
1131.20 0.338
1131.30 0.3379
1131.40 0.3378
1131.50 0.3378
1131.60 0.3377
1131.70 0.3376
1131.80 0.3375
1131.90 0.3375
1132.00 0.3374
1132.10 0.3373
1132.20 0.3373
1132.30 0.3372
1132.40 0.3371
1132.50 0.3371
1132.60 0.337
1132.70 0.3369
1132.80 0.3369
1132.90 0.3368
1133.00 0.3367
1133.10 0.3367
1133.20 0.3366
1133.30 0.3365
1133.40 0.3365
1133.50 0.3364
1133.60 0.3363
1133.70 0.3363
1133.80 0.3362
1133.90 0.3361
1134.00 0.3361
1134.10 0.336
1134.20 0.3359
1134.30 0.3359
1134.40 0.3358
1134.50 0.3357
1134.60 0.3357
1134.70 0.3356
1134.80 0.3355
1134.90 0.3355
1135.00 0.3354
1135.10 0.3353
1135.20 0.3353
1135.30 0.3352
1135.40 0.3351
1135.50 0.3351
1135.60 0.335
1135.70 0.3349
1135.80 0.3349
1135.90 0.3348
1136.00 0.3347
1136.10 0.3347
1136.20 0.3346
1136.30 0.3345
1136.40 0.3345
1136.50 0.3344
1136.60 0.3343
1136.70 0.3343
1136.80 0.3342
1136.90 0.3341
1137.00 0.3341
1137.10 0.334
1137.20 0.3339
1137.30 0.3339
1137.40 0.3338
1137.50 0.3337
1137.60 0.3337
1137.70 0.3336
1137.80 0.3335
1137.90 0.3335
1138.00 0.3334
1138.10 0.3333
1138.20 0.3333
1138.30 0.3332
1138.40 0.3332
1138.50 0.3331
1138.60 0.333
1138.70 0.333
1138.80 0.3329
1138.90 0.3328
1139.00 0.3328
1139.10 0.3327
1139.20 0.3326
1139.30 0.3326
1139.40 0.3325
1139.50 0.3324
1139.60 0.3324
1139.70 0.3323
1139.80 0.3322
1139.90 0.3322
1140.00 0.3321
1140.10 0.332
1140.20 0.332
1140.30 0.3319
1140.40 0.3318
1140.50 0.3318
1140.60 0.3317
1140.70 0.3316
1140.80 0.3316
1140.90 0.3315
1141.00 0.3314
1141.10 0.3314
1141.20 0.3313
1141.30 0.3312
1141.40 0.3312
1141.50 0.3311
1141.60 0.331
1141.70 0.331
1141.80 0.3309
1141.90 0.3308
1142.00 0.3308
1142.10 0.3307
1142.20 0.3306
1142.30 0.3306
1142.40 0.3305
1142.50 0.3305
1142.60 0.3304
1142.70 0.3303
1142.80 0.3303
1142.90 0.3302
1143.00 0.3301
1143.10 0.3301
1143.20 0.33
1143.30 0.3299
1143.40 0.3299
1143.50 0.3298
1143.60 0.3297
1143.70 0.3297
1143.80 0.3296
1143.90 0.3295
1144.00 0.3295
1144.10 0.3294
1144.20 0.3293
1144.30 0.3293
1144.40 0.3292
1144.50 0.3291
1144.60 0.3291
1144.70 0.329
1144.80 0.3289
1144.90 0.3289
1145.00 0.3288
1145.10 0.3288
1145.20 0.3287
1145.30 0.3286
1145.40 0.3286
1145.50 0.3285
1145.60 0.3284
1145.70 0.3284
1145.80 0.3283
1145.90 0.3282
1146.00 0.3282
1146.10 0.3281
1146.20 0.328
1146.30 0.328
1146.40 0.3279
1146.50 0.3278
1146.60 0.3278
1146.70 0.3277
1146.80 0.3276
1146.90 0.3276
1147.00 0.3275
1147.10 0.3275
1147.20 0.3274
1147.30 0.3273
1147.40 0.3273
1147.50 0.3272
1147.60 0.3271
1147.70 0.3271
1147.80 0.327
1147.90 0.3269
1148.00 0.3269
1148.10 0.3268
1148.20 0.3267
1148.30 0.3267
1148.40 0.3266
1148.50 0.3265
1148.60 0.3265
1148.70 0.3264
1148.80 0.3264
1148.90 0.3263
1149.00 0.3262
1149.10 0.3262
1149.20 0.3261
1149.30 0.326
1149.40 0.326
1149.50 0.3259
1149.60 0.3258
1149.70 0.3258
1149.80 0.3257
1149.90 0.3256
1150.00 0.3256
1150.10 0.3255
1150.20 0.3255
1150.30 0.3254
1150.40 0.3253
1150.50 0.3253
1150.60 0.3252
1150.70 0.3251
1150.80 0.3251
1150.90 0.325
1151.00 0.3249
1151.10 0.3249
1151.20 0.3248
1151.30 0.3247
1151.40 0.3247
1151.50 0.3246
1151.60 0.3246
1151.70 0.3245
1151.80 0.3244
1151.90 0.3244
1152.00 0.3243
1152.10 0.3242
1152.20 0.3242
1152.30 0.3241
1152.40 0.324
1152.50 0.324
1152.60 0.3239
1152.70 0.3238
1152.80 0.3238
1152.90 0.3237
1153.00 0.3237
1153.10 0.3236
1153.20 0.3235
1153.30 0.3235
1153.40 0.3234
1153.50 0.3233
1153.60 0.3233
1153.70 0.3232
1153.80 0.3231
1153.90 0.3231
1154.00 0.323
1154.10 0.323
1154.20 0.3229
1154.30 0.3228
1154.40 0.3228
1154.50 0.3227
1154.60 0.3226
1154.70 0.3226
1154.80 0.3225
1154.90 0.3224
1155.00 0.3224
1155.10 0.3223
1155.20 0.3223
1155.30 0.3222
1155.40 0.3221
1155.50 0.3221
1155.60 0.322
1155.70 0.3219
1155.80 0.3219
1155.90 0.3218
1156.00 0.3217
1156.10 0.3217
1156.20 0.3216
1156.30 0.3216
1156.40 0.3215
1156.50 0.3214
1156.60 0.3214
1156.70 0.3213
1156.80 0.3212
1156.90 0.3212
1157.00 0.3211
1157.10 0.3211
1157.20 0.321
1157.30 0.3209
1157.40 0.3209
1157.50 0.3208
1157.60 0.3207
1157.70 0.3207
1157.80 0.3206
1157.90 0.3205
1158.00 0.3205
1158.10 0.3204
1158.20 0.3204
1158.30 0.3203
1158.40 0.3202
1158.50 0.3202
1158.60 0.3201
1158.70 0.32
1158.80 0.32
1158.90 0.3199
1159.00 0.3198
1159.10 0.3198
1159.20 0.3197
1159.30 0.3197
1159.40 0.3196
1159.50 0.3195
1159.60 0.3195
1159.70 0.3194
1159.80 0.3193
1159.90 0.3193
1160.00 0.3192
1160.10 0.3192
1160.20 0.3191
1160.30 0.319
1160.40 0.319
1160.50 0.3189
1160.60 0.3188
1160.70 0.3188
1160.80 0.3187
1160.90 0.3187
1161.00 0.3186
1161.10 0.3185
1161.20 0.3185
1161.30 0.3184
1161.40 0.3183
1161.50 0.3183
1161.60 0.3182
1161.70 0.3182
1161.80 0.3181
1161.90 0.318
1162.00 0.318
1162.10 0.3179
1162.20 0.3178
1162.30 0.3178
1162.40 0.3177
1162.50 0.3177
1162.60 0.3176
1162.70 0.3175
1162.80 0.3175
1162.90 0.3174
1163.00 0.3173
1163.10 0.3173
1163.20 0.3172
1163.30 0.3172
1163.40 0.3171
1163.50 0.317
1163.60 0.317
1163.70 0.3169
1163.80 0.3168
1163.90 0.3168
1164.00 0.3167
1164.10 0.3167
1164.20 0.3166
1164.30 0.3165
1164.40 0.3165
1164.50 0.3164
1164.60 0.3163
1164.70 0.3163
1164.80 0.3162
1164.90 0.3162
1165.00 0.3161
1165.10 0.316
1165.20 0.316
1165.30 0.3159
1165.40 0.3158
1165.50 0.3158
1165.60 0.3157
1165.70 0.3157
1165.80 0.3156
1165.90 0.3155
1166.00 0.3155
1166.10 0.3154
1166.20 0.3154
1166.30 0.3153
1166.40 0.3152
1166.50 0.3152
1166.60 0.3151
1166.70 0.315
1166.80 0.315
1166.90 0.3149
1167.00 0.3149
1167.10 0.3148
1167.20 0.3147
1167.30 0.3147
1167.40 0.3146
1167.50 0.3145
1167.60 0.3145
1167.70 0.3144
1167.80 0.3144
1167.90 0.3143
1168.00 0.3142
1168.10 0.3142
1168.20 0.3141
1168.30 0.3141
1168.40 0.314
1168.50 0.3139
1168.60 0.3139
1168.70 0.3138
1168.80 0.3137
1168.90 0.3137
1169.00 0.3136
1169.10 0.3136
1169.20 0.3135
1169.30 0.3134
1169.40 0.3134
1169.50 0.3133
1169.60 0.3133
1169.70 0.3132
1169.80 0.3131
1169.90 0.3131
1170.00 0.313
1170.10 0.3129
1170.20 0.3129
1170.30 0.3128
1170.40 0.3128
1170.50 0.3127
1170.60 0.3126
1170.70 0.3126
1170.80 0.3125
1170.90 0.3125
1171.00 0.3124
1171.10 0.3123
1171.20 0.3123
1171.30 0.3122
1171.40 0.3122
1171.50 0.3121
1171.60 0.312
1171.70 0.312
1171.80 0.3119
1171.90 0.3118
1172.00 0.3118
1172.10 0.3117
1172.20 0.3117
1172.30 0.3116
1172.40 0.3115
1172.50 0.3115
1172.60 0.3114
1172.70 0.3114
1172.80 0.3113
1172.90 0.3112
1173.00 0.3112
1173.10 0.3111
1173.20 0.3111
1173.30 0.311
1173.40 0.3109
1173.50 0.3109
1173.60 0.3108
1173.70 0.3107
1173.80 0.3107
1173.90 0.3106
1174.00 0.3106
1174.10 0.3105
1174.20 0.3104
1174.30 0.3104
1174.40 0.3103
1174.50 0.3103
1174.60 0.3102
1174.70 0.3101
1174.80 0.3101
1174.90 0.31
1175.00 0.31
1175.10 0.3099
1175.20 0.3098
1175.30 0.3098
1175.40 0.3097
1175.50 0.3097
1175.60 0.3096
1175.70 0.3095
1175.80 0.3095
1175.90 0.3094
1176.00 0.3094
1176.10 0.3093
1176.20 0.3092
1176.30 0.3092
1176.40 0.3091
1176.50 0.309
1176.60 0.309
1176.70 0.3089
1176.80 0.3089
1176.90 0.3088
1177.00 0.3087
1177.10 0.3087
1177.20 0.3086
1177.30 0.3086
1177.40 0.3085
1177.50 0.3084
1177.60 0.3084
1177.70 0.3083
1177.80 0.3083
1177.90 0.3082
1178.00 0.3081
1178.10 0.3081
1178.20 0.308
1178.30 0.308
1178.40 0.3079
1178.50 0.3078
1178.60 0.3078
1178.70 0.3077
1178.80 0.3077
1178.90 0.3076
1179.00 0.3075
1179.10 0.3075
1179.20 0.3074
1179.30 0.3074
1179.40 0.3073
1179.50 0.3072
1179.60 0.3072
1179.70 0.3071
1179.80 0.3071
1179.90 0.307
1180.00 0.3069
1180.10 0.3069
1180.20 0.3068
1180.30 0.3068
1180.40 0.3067
1180.50 0.3066
1180.60 0.3066
1180.70 0.3065
1180.80 0.3065
1180.90 0.3064
1181.00 0.3063
1181.10 0.3063
1181.20 0.3062
1181.30 0.3062
1181.40 0.3061
1181.50 0.306
1181.60 0.306
1181.70 0.3059
1181.80 0.3059
1181.90 0.3058
1182.00 0.3058
1182.10 0.3057
1182.20 0.3056
1182.30 0.3056
1182.40 0.3055
1182.50 0.3055
1182.60 0.3054
1182.70 0.3053
1182.80 0.3053
1182.90 0.3052
1183.00 0.3052
1183.10 0.3051
1183.20 0.305
1183.30 0.305
1183.40 0.3049
1183.50 0.3049
1183.60 0.3048
1183.70 0.3047
1183.80 0.3047
1183.90 0.3046
1184.00 0.3046
1184.10 0.3045
1184.20 0.3044
1184.30 0.3044
1184.40 0.3043
1184.50 0.3043
1184.60 0.3042
1184.70 0.3041
1184.80 0.3041
1184.90 0.304
1185.00 0.304
1185.10 0.3039
1185.20 0.3038
1185.30 0.3038
1185.40 0.3037
1185.50 0.3037
1185.60 0.3036
1185.70 0.3036
1185.80 0.3035
1185.90 0.3034
1186.00 0.3034
1186.10 0.3033
1186.20 0.3033
1186.30 0.3032
1186.40 0.3031
1186.50 0.3031
1186.60 0.303
1186.70 0.303
1186.80 0.3029
1186.90 0.3028
1187.00 0.3028
1187.10 0.3027
1187.20 0.3027
1187.30 0.3026
1187.40 0.3026
1187.50 0.3025
1187.60 0.3024
1187.70 0.3024
1187.80 0.3023
1187.90 0.3023
1188.00 0.3022
1188.10 0.3021
1188.20 0.3021
1188.30 0.302
1188.40 0.302
1188.50 0.3019
1188.60 0.3018
1188.70 0.3018
1188.80 0.3017
1188.90 0.3017
1189.00 0.3016
1189.10 0.3016
1189.20 0.3015
1189.30 0.3014
1189.40 0.3014
1189.50 0.3013
1189.60 0.3013
1189.70 0.3012
1189.80 0.3011
1189.90 0.3011
1190.00 0.301
1190.10 0.301
1190.20 0.3009
1190.30 0.3008
1190.40 0.3008
1190.50 0.3007
1190.60 0.3007
1190.70 0.3006
1190.80 0.3006
1190.90 0.3005
1191.00 0.3004
1191.10 0.3004
1191.20 0.3003
1191.30 0.3003
1191.40 0.3002
1191.50 0.3001
1191.60 0.3001
1191.70 0.3
1191.80 0.3
1191.90 0.2999
1192.00 0.2999
1192.10 0.2998
1192.20 0.2997
1192.30 0.2997
1192.40 0.2996
1192.50 0.2996
1192.60 0.2995
1192.70 0.2994
1192.80 0.2994
1192.90 0.2993
1193.00 0.2993
1193.10 0.2992
1193.20 0.2992
1193.30 0.2991
1193.40 0.299
1193.50 0.299
1193.60 0.2989
1193.70 0.2989
1193.80 0.2988
1193.90 0.2988
1194.00 0.2987
1194.10 0.2986
1194.20 0.2986
1194.30 0.2985
1194.40 0.2985
1194.50 0.2984
1194.60 0.2983
1194.70 0.2983
1194.80 0.2982
1194.90 0.2982
1195.00 0.2981
1195.10 0.2981
1195.20 0.298
1195.30 0.2979
1195.40 0.2979
1195.50 0.2978
1195.60 0.2978
1195.70 0.2977
1195.80 0.2977
1195.90 0.2976
1196.00 0.2975
1196.10 0.2975
1196.20 0.2974
1196.30 0.2974
1196.40 0.2973
1196.50 0.2973
1196.60 0.2972
1196.70 0.2971
1196.80 0.2971
1196.90 0.297
1197.00 0.297
1197.10 0.2969
1197.20 0.2968
1197.30 0.2968
1197.40 0.2967
1197.50 0.2967
1197.60 0.2966
1197.70 0.2966
1197.80 0.2965
1197.90 0.2964
1198.00 0.2964
1198.10 0.2963
1198.20 0.2963
1198.30 0.2962
1198.40 0.2962
1198.50 0.2961
1198.60 0.296
1198.70 0.296
1198.80 0.2959
1198.90 0.2959
1199.00 0.2958
1199.10 0.2958
1199.20 0.2957
1199.30 0.2956
1199.40 0.2956
1199.50 0.2955
1199.60 0.2955
1199.70 0.2954
1199.80 0.2954
1199.90 0.2953
1200.00 0
