# Wavelength(nm)  Flambda(ergs/cm^s/s/nm)
300.00 0.3185673
300.10 0.3191023
300.20 0.319639
300.30 0.3201737
300.40 0.3207001
300.50 0.3212257
300.60 0.3217505
300.70 0.3222744
300.80 0.3227977
300.90 0.3233202
301.00 0.323842
301.10 0.3243629
301.20 0.3248831
301.30 0.3254025
301.40 0.3259212
301.50 0.3264391
301.60 0.3269562
301.70 0.3274726
301.80 0.3279883
301.90 0.3285032
302.00 0.3290173
302.10 0.3295465
302.20 0.3300768
302.30 0.3306062
302.40 0.3311348
302.50 0.3316627
302.60 0.3321898
302.70 0.3327162
302.80 0.3332417
302.90 0.3337665
303.00 0.3342906
303.10 0.3348138
303.20 0.3353364
303.30 0.3358593
303.40 0.3363924
303.50 0.3369246
303.60 0.3374561
303.70 0.3379867
303.80 0.3385166
303.90 0.3390458
304.00 0.3395741
304.10 0.3401017
304.20 0.3406286
304.30 0.3411547
304.40 0.34168
304.50 0.3422045
304.60 0.3427405
304.70 0.3432771
304.80 0.3438129
304.90 0.3443479
305.00 0.3448821
305.10 0.3454156
305.20 0.3459482
305.30 0.3464802
305.40 0.3470113
305.50 0.3475417
305.60 0.3480714
305.70 0.3486002
305.80 0.3491283
305.90 0.3496556
306.00 0.350182
306.10 0.3507078
306.20 0.3512329
306.30 0.3517572
306.40 0.3522954
306.50 0.3528372
306.60 0.3533783
306.70 0.3539186
306.80 0.3544581
306.90 0.3549969
307.00 0.3555348
307.10 0.356072
307.20 0.3566085
307.30 0.3571441
307.40 0.3576789
307.50 0.3582131
307.60 0.3587464
307.70 0.3592789
307.80 0.3598108
307.90 0.3603418
308.00 0.360872
308.10 0.3614015
308.20 0.3619302
308.30 0.3624582
308.40 0.3629854
308.50 0.3635119
308.60 0.3640376
308.70 0.3645625
308.80 0.3650914
308.90 0.3656329
309.00 0.3661669
309.10 0.3667
309.20 0.3672325
309.30 0.3677641
309.40 0.3682966
309.50 0.3688374
309.60 0.3693774
309.70 0.3699167
309.80 0.3704553
309.90 0.3709931
310.00 0.37153
310.10 0.3720662
310.20 0.3726016
310.30 0.3731364
310.40 0.3736737
310.50 0.3742139
310.60 0.3747534
310.70 0.3752921
310.80 0.3758301
310.90 0.3763673
311.00 0.3769009
311.10 0.3774337
311.20 0.3779658
311.30 0.3785012
311.40 0.3790471
311.50 0.3795921
311.60 0.3801365
311.70 0.3806802
311.80 0.3812229
311.90 0.381765
312.00 0.3823062
312.10 0.3828467
312.20 0.3833705
312.30 0.3838927
312.40 0.3844299
312.50 0.3849611
312.60 0.3855017
312.70 0.3860416
312.80 0.3865807
312.90 0.3871256
313.00 0.3876766
313.10 0.3882269
313.20 0.3887764
313.30 0.3893227
313.40 0.3898611
313.50 0.3903989
313.60 0.3909358
313.70 0.391472
313.80 0.3920074
313.90 0.3925421
314.00 0.393076
314.10 0.3936182
314.20 0.3941597
314.30 0.3947003
314.40 0.3952402
314.50 0.3957793
314.60 0.3963177
314.70 0.3968553
314.80 0.3974091
314.90 0.3979783
315.00 0.3985124
315.10 0.3990536
315.20 0.3995942
315.30 0.4001338
315.40 0.4006728
315.50 0.401211
315.60 0.4017484
315.70 0.4022943
315.80 0.4028394
315.90 0.4033837
316.00 0.4039273
316.10 0.40447
316.20 0.4050121
316.30 0.4055533
316.40 0.4060938
316.50 0.406661
316.60 0.4071725
316.70 0.4077107
316.80 0.4082481
316.90 0.4087984
317.00 0.409348
317.10 0.4098969
317.20 0.410445
317.30 0.4110028
317.40 0.4115542
317.50 0.4120893
317.60 0.4126236
317.70 0.413157
317.80 0.4136899
317.90 0.4142533
318.00 0.4147926
318.10 0.4153338
318.20 0.4158742
318.30 0.4164138
318.40 0.4169562
318.50 0.4175078
318.60 0.4180588
318.70 0.4186089
318.80 0.4191636
318.90 0.4197067
319.00 0.4202545
319.10 0.4208016
319.20 0.4213453
319.30 0.4218808
319.40 0.4224155
319.50 0.4229495
319.60 0.4235263
319.70 0.4240731
319.80 0.424619
319.90 0.4251642
320.00 0.4257065
320.10 0.4262459
320.20 0.4267756
320.30 0.4273224
320.40 0.4278488
320.50 0.4283959
320.60 0.4289444
320.70 0.429506
320.80 0.4300604
320.90 0.430607
321.00 0.431153
321.10 0.4316982
321.20 0.4322257
321.30 0.4327772
321.40 0.433328
321.50 0.4338779
321.60 0.4344271
321.70 0.4349756
321.80 0.4355097
321.90 0.4360283
322.00 0.4366075
322.10 0.4371542
322.20 0.4377002
322.30 0.4382454
322.40 0.4387899
322.50 0.4393335
322.60 0.4398765
322.70 0.4404186
322.80 0.4409422
322.90 0.4414938
323.00 0.4420446
323.10 0.4425947
323.20 0.443144
323.30 0.4436926
323.40 0.4442404
323.50 0.4447874
323.60 0.4453337
323.70 0.4458792
323.80 0.446424
323.90 0.4469679
324.00 0.4475048
324.10 0.4480409
324.20 0.4485762
324.30 0.4491265
324.40 0.4496963
324.50 0.4502387
324.60 0.4507803
324.70 0.4513212
324.80 0.4518613
324.90 0.4524007
325.00 0.4529393
325.10 0.4534771
325.20 0.45402
325.30 0.454574
325.40 0.4551274
325.50 0.4556763
325.60 0.4562199
325.70 0.4567627
325.80 0.4573049
325.90 0.4578523
326.00 0.4584055
326.10 0.458958
326.20 0.4595097
326.30 0.4600574
326.40 0.4605952
326.50 0.4611448
326.60 0.4616936
326.70 0.4622416
326.80 0.4627889
326.90 0.4633354
327.00 0.4638811
327.10 0.4644261
327.20 0.4649704
327.30 0.4655139
327.40 0.4660566
327.50 0.4665986
327.60 0.4671399
327.70 0.4676804
327.80 0.4682201
327.90 0.4687688
328.00 0.4693191
328.10 0.469859
328.20 0.4703982
328.30 0.4709367
328.40 0.4714744
328.50 0.4720186
328.60 0.4725638
328.70 0.4731081
328.80 0.4736529
328.90 0.4742003
329.00 0.474747
329.10 0.4752929
329.20 0.475838
329.30 0.4763823
329.40 0.476926
329.50 0.477469
329.60 0.4780111
329.70 0.4785524
329.80 0.4790931
329.90 0.479633
330.00 0.4801767
330.10 0.4807251
330.20 0.4812728
330.30 0.4818197
330.40 0.4823673
330.50 0.4829155
330.60 0.4834631
330.70 0.4840099
330.80 0.4845559
330.90 0.4851011
331.00 0.4856457
331.10 0.4861895
331.20 0.4867325
331.30 0.4872749
331.40 0.4878164
331.50 0.4883524
331.60 0.4888816
331.70 0.4894102
331.80 0.4899683
331.90 0.490527
332.00 0.491085
332.10 0.4916421
332.20 0.4921984
332.30 0.4927541
332.40 0.493309
332.50 0.4938631
332.60 0.4944164
332.70 0.4949691
332.80 0.4955209
332.90 0.4960721
333.00 0.4966224
333.10 0.4971698
333.20 0.4977138
333.30 0.498257
333.40 0.4987995
333.50 0.4993412
333.60 0.4998823
333.70 0.5004226
333.80 0.5009621
333.90 0.5015009
334.00 0.5020389
334.10 0.5025689
334.20 0.5030891
334.30 0.5036086
334.40 0.5041273
334.50 0.5046454
334.60 0.5051627
334.70 0.505736
334.80 0.506298
334.90 0.5067446
335.00 0.5071904
335.10 0.5078654
335.20 0.5082968
335.30 0.5089478
335.40 0.5093779
335.50 0.5098074
335.60 0.5104195
335.70 0.5110429
335.80 0.5117143
335.90 0.5123299
336.00 0.5128778
336.10 0.5134248
336.20 0.5139712
336.30 0.5144986
336.40 0.515003
336.50 0.5155066
336.60 0.5160095
336.70 0.5165119
336.80 0.5170134
336.90 0.5175288
337.00 0.5180609
337.10 0.5185925
337.20 0.5191232
337.30 0.5196757
337.40 0.5202595
337.50 0.5208426
337.60 0.521425
337.70 0.5220065
337.80 0.5225872
337.90 0.5231453
338.00 0.5236756
338.10 0.5242052
338.20 0.5247342
338.30 0.5252624
338.40 0.5257822
338.50 0.5262825
338.60 0.5267823
338.70 0.5272813
338.80 0.5277797
338.90 0.5282773
339.00 0.5287742
339.10 0.5292706
339.20 0.5297662
339.30 0.5303301
339.40 0.5309922
339.50 0.531594
339.60 0.5321223
339.70 0.5326499
339.80 0.5331768
339.90 0.533703
340.00 0.5342284
340.10 0.5347532
340.20 0.5352772
340.30 0.5358005
340.40 0.5363232
340.50 0.5368451
340.60 0.5373663
340.70 0.5378868
340.80 0.5384604
340.90 0.5391106
341.00 0.5396981
341.10 0.540209
341.20 0.5407194
341.30 0.5412291
341.40 0.541738
341.50 0.5422463
341.60 0.5427539
341.70 0.5432607
341.80 0.543795
341.90 0.5443628
342.00 0.5449298
342.10 0.5454961
342.20 0.5458848
342.30 0.5463765
342.40 0.54701
342.50 0.5475562
342.60 0.5481016
342.70 0.5486462
342.80 0.5491902
342.90 0.5497335
343.00 0.5502522
343.10 0.5507412
343.20 0.5512296
343.30 0.5517173
343.40 0.5522234
343.50 0.5527568
343.60 0.5532893
343.70 0.5538212
343.80 0.5543523
343.90 0.5548827
344.00 0.5553966
344.10 0.5558868
344.20 0.5563765
344.30 0.5568654
344.40 0.5574013
344.50 0.5580048
344.60 0.5587025
344.70 0.5590729
344.80 0.5594427
344.90 0.5602745
345.00 0.5605483
345.10 0.5611473
345.20 0.5617506
345.30 0.5623605
345.40 0.5629697
345.50 0.5635564
345.60 0.5640991
345.70 0.5646167
345.80 0.5651336
345.90 0.5656499
346.00 0.5661654
346.10 0.5666802
346.20 0.5671881
346.30 0.5676863
346.40 0.5681838
346.50 0.5686806
346.60 0.5691768
346.70 0.5696723
346.80 0.5701671
346.90 0.5706614
347.00 0.5711548
347.10 0.5716477
347.20 0.5721607
347.30 0.572703
347.40 0.5732445
347.50 0.5737853
347.60 0.5743254
347.70 0.5748648
347.80 0.5754035
347.90 0.5759414
348.00 0.5764787
348.10 0.5770152
348.20 0.577551
348.30 0.5780861
348.40 0.5786205
348.50 0.5791542
348.60 0.5796871
348.70 0.5800716
348.80 0.5804927
348.90 0.5810337
349.00 0.581574
349.10 0.5821135
349.20 0.5826524
349.30 0.5831905
349.40 0.5837279
349.50 0.5842646
349.60 0.5848006
349.70 0.5853359
349.80 0.5858706
349.90 0.5864044
350.00 0.5869376
350.10 0.58747
350.20 0.5880018
350.30 0.5885268
350.40 0.5890424
350.50 0.5895574
350.60 0.5900716
350.70 0.5905852
350.80 0.5910981
350.90 0.5916104
351.00 0.5921219
351.10 0.5926327
351.20 0.593143
351.30 0.5936525
351.40 0.5941574
351.50 0.594655
351.60 0.5951519
351.70 0.5956482
351.80 0.5961438
351.90 0.5966386
352.00 0.597133
352.10 0.5976265
352.20 0.598174
352.30 0.598721
352.40 0.5992589
352.50 0.599796
352.60 0.6003324
352.70 0.6008681
352.80 0.6014031
352.90 0.6019374
353.00 0.602471
353.10 0.6030038
353.20 0.6035361
353.30 0.6040675
353.40 0.6045984
353.50 0.6050653
353.60 0.6055158
353.70 0.6059658
353.80 0.6064152
353.90 0.6068971
354.00 0.6074371
354.10 0.6079764
354.20 0.608515
354.30 0.609053
354.40 0.6095902
354.50 0.6101267
354.60 0.6106625
354.70 0.6111977
354.80 0.6116968
354.90 0.6121444
355.00 0.6125914
355.10 0.6130379
355.20 0.6134837
355.30 0.6140484
355.40 0.6146123
355.50 0.6151756
355.60 0.6157381
355.70 0.6161884
355.80 0.6165881
355.90 0.616998
356.00 0.6175039
356.10 0.6180284
356.20 0.6185521
356.30 0.6190753
356.40 0.6195977
356.50 0.6201194
356.60 0.6206405
356.70 0.6211609
356.80 0.6216805
356.90 0.6221996
357.00 0.6227179
357.10 0.6232356
357.20 0.6237525
357.30 0.6242689
357.40 0.62475
357.50 0.6251691
357.60 0.6255878
357.70 0.6260058
357.80 0.6266325
357.90 0.6272585
358.00 0.6277939
358.10 0.6283062
358.20 0.6288179
358.30 0.6293289
358.40 0.6298392
358.50 0.6303489
358.60 0.6308579
358.70 0.6313662
358.80 0.6318739
358.90 0.6323809
359.00 0.6328537
359.10 0.6332666
359.20 0.6336983
359.30 0.63426
359.40 0.6348211
359.50 0.6352587
359.60 0.6356651
359.70 0.6360709
359.80 0.6365223
359.90 0.636973
360.00 0.6374467
360.10 0.6379617
360.20 0.638476
360.30 0.6389897
360.40 0.6395027
360.50 0.6400151
360.60 0.6408195
360.70 0.6413099
360.80 0.6417996
360.90 0.6422888
361.00 0.6427447
361.10 0.6432426
361.20 0.6434486
361.30 0.6441039
361.40 0.6444004
361.50 0.6450753
361.60 0.6456946
361.70 0.6461786
361.80 0.6466549
361.90 0.647118
362.00 0.6475804
362.10 0.6480859
362.20 0.6485852
362.30 0.6490544
362.40 0.6495229
362.50 0.6499908
362.60 0.6504582
362.70 0.6509616
362.80 0.651578
362.90 0.6520502
363.00 0.6525218
363.10 0.6529253
363.20 0.6533275
363.30 0.6539537
363.40 0.6542187
363.50 0.6548997
363.60 0.6553717
363.70 0.6557045
363.80 0.6563138
363.90 0.6568435
364.00 0.6573723
364.10 0.6579005
364.20 0.658428
364.30 0.6587968
364.40 0.6591258
364.50 0.6596006
364.60 0.6600637
364.70 0.6605262
364.80 0.6609882
364.90 0.6616587
365.00 0.6623286
365.10 0.6625848
365.20 0.6630469
365.30 0.6635085
365.40 0.6641755
365.50 0.6646357
365.60 0.6650953
365.70 0.6654794
365.80 0.6658631
365.90 0.6663791
366.00 0.6669276
366.10 0.6673701
366.20 0.667812
366.30 0.6682533
366.40 0.6686941
366.50 0.6691959
366.60 0.6696583
366.70 0.6702228
366.80 0.6707867
366.90 0.6713066
367.00 0.6717488
367.10 0.6721906
367.20 0.6726317
367.30 0.6730722
367.40 0.6735122
367.50 0.674031
367.60 0.674569
367.70 0.6750587
367.80 0.6755478
367.90 0.6760362
368.00 0.6765561
368.10 0.6767926
368.20 0.6772725
368.30 0.6777552
368.40 0.6782372
368.50 0.6787188
368.60 0.6791996
368.70 0.6796798
368.80 0.6801594
368.90 0.6808529
369.00 0.6813082
369.10 0.6816084
369.20 0.6820531
369.30 0.6826249
369.40 0.6831961
369.50 0.6837665
369.60 0.6841979
369.70 0.6846288
369.80 0.6851277
369.90 0.6856266
370.00 0.6861249
370.10 0.6863707
370.20 0.6867948
370.30 0.6872262
370.40 0.6878556
370.50 0.6882909
370.60 0.6887155
370.70 0.6893549
370.80 0.6897793
370.90 0.6902032
371.00 0.6906345
371.10 0.6910653
371.20 0.6914875
371.30 0.6919091
371.40 0.6926362
371.50 0.6930799
371.60 0.693523
371.70 0.6939655
371.80 0.6944075
371.90 0.6948488
372.00 0.6952217
372.10 0.6956995
372.20 0.696186
372.30 0.696672
372.40 0.6971574
372.50 0.6976421
372.60 0.6981263
372.70 0.6986097
372.80 0.6990228
372.90 0.6994352
373.00 0.6998549
373.10 0.7002741
373.20 0.7006888
373.30 0.7011031
373.40 0.7017139
373.50 0.702324
373.60 0.7025393
373.70 0.7031482
373.80 0.7034241
373.90 0.7039702
374.00 0.7044787
374.10 0.7049865
374.20 0.7054938
374.30 0.7060003
374.40 0.706359
374.50 0.7068058
374.60 0.7072162
374.70 0.7076244
374.80 0.708032
374.90 0.7084391
375.00 0.7089742
375.10 0.7095084
375.20 0.7100421
375.30 0.7105007
375.40 0.7109588
375.50 0.7114162
375.60 0.711873
375.70 0.7123292
375.80 0.7127849
375.90 0.7132399
376.00 0.7136311
376.10 0.7140982
376.20 0.7145655
376.30 0.7150322
376.40 0.7154982
376.50 0.7159467
376.60 0.716369
376.70 0.7167908
376.80 0.7172176
376.90 0.7176495
377.00 0.7180808
377.10 0.7185117
377.20 0.7189486
377.30 0.7194102
377.40 0.7198713
377.50 0.7203318
377.60 0.7207891
377.70 0.7212457
377.80 0.7217018
377.90 0.7221573
378.00 0.7226531
378.10 0.7230739
378.20 0.7234929
378.30 0.7239113
378.40 0.7243291
378.50 0.7247464
378.60 0.7251632
378.70 0.7255794
378.80 0.725995
378.90 0.7264288
379.00 0.7268966
379.10 0.7274318
379.20 0.7279664
379.30 0.7284115
379.40 0.7287673
379.50 0.7291225
379.60 0.7295668
379.70 0.7301179
379.80 0.7305686
379.90 0.7310187
380.00 0.7314683
380.10 0.7319172
380.20 0.7323656
380.30 0.7328135
380.40 0.7332606
380.50 0.7337073
380.60 0.7340206
380.70 0.7344115
380.80 0.7348018
380.90 0.7351916
381.00 0.7355809
381.10 0.7361418
381.20 0.73666
381.30 0.7371435
381.40 0.7374036
381.50 0.7379862
381.60 0.7384347
381.70 0.7387448
381.80 0.7392945
381.90 0.7396617
382.00 0.7400285
382.10 0.7405832
382.20 0.7410619
382.30 0.741427
382.40 0.7417989
382.50 0.742181
382.60 0.7425627
382.70 0.7429463
382.80 0.7433828
382.90 0.7438692
383.00 0.7443549
383.10 0.7448401
383.20 0.7453152
383.30 0.7457538
383.40 0.7461818
383.50 0.7465943
383.60 0.7470236
383.70 0.747422
383.80 0.7478199
383.90 0.7482172
384.00 0.748614
384.10 0.7490103
384.20 0.749406
384.30 0.7498014
384.40 0.7502375
384.50 0.7507147
384.60 0.7511914
384.70 0.7516674
384.80 0.7521423
384.90 0.7525917
385.00 0.7529973
385.10 0.7533998
385.20 0.7537197
385.30 0.7540809
385.40 0.7544974
385.50 0.7549689
385.60 0.7554397
385.70 0.7559101
385.80 0.756335
385.90 0.7565912
386.00 0.7570468
386.10 0.7576715
386.20 0.7579912
386.30 0.7583105
386.40 0.758822
386.50 0.7592894
386.60 0.7596977
386.70 0.7599487
386.80 0.7604751
386.90 0.7610007
387.00 0.7612595
387.10 0.761784
387.20 0.7620142
387.30 0.7624644
387.40 0.7629848
387.50 0.7634595
387.60 0.7636455
387.70 0.7640751
387.80 0.7645041
387.90 0.7649326
388.00 0.7653663
388.10 0.765945
388.20 0.7662654
388.30 0.7666816
388.40 0.7670972
388.50 0.7674526
388.60 0.7677694
388.70 0.7682249
388.80 0.7687292
388.90 0.7692432
389.00 0.7694455
389.10 0.7698874
389.20 0.7703927
389.30 0.770873
389.40 0.7712214
389.50 0.7716374
389.60 0.7720516
389.70 0.7722311
389.80 0.772697
389.90 0.7731623
390.00 0.7736269
390.10 0.7740911
390.20 0.7745546
390.30 0.7749891
390.40 0.7753911
390.50 0.7757924
390.60 0.7761933
390.70 0.7765936
390.80 0.7769001
390.90 0.7771129
391.00 0.7774757
391.10 0.7779511
391.20 0.7784467
391.30 0.7789295
391.40 0.7793094
391.50 0.779689
391.60 0.7800682
391.70 0.7804468
391.80 0.7808248
391.90 0.7811524
392.00 0.7815274
392.10 0.7820582
392.20 0.7825593
392.30 0.782828
392.40 0.7831555
392.50 0.7835141
392.60 0.7840072
392.70 0.7844998
392.80 0.7847511
392.90 0.7853297
393.00 0.785688
393.10 0.7860535
393.20 0.7864217
393.30 0.7867331
393.40 0.7870689
393.50 0.7875786
393.60 0.7880359
393.70 0.7882656
393.80 0.7886547
393.90 0.7891406
394.00 0.7895977
394.10 0.7899223
394.20 0.7904201
394.30 0.790776
394.40 0.7911869
394.50 0.7914344
394.60 0.7918229
394.70 0.7922151
394.80 0.7926234
394.90 0.7930293
395.00 0.7934128
395.10 0.7938609
395.20 0.7942069
395.30 0.7946079
395.40 0.7950083
395.50 0.7953446
395.60 0.795657
395.70 0.7960149
395.80 0.7964961
395.90 0.7969768
396.00 0.7974159
396.10 0.7975621
396.20 0.7980357
396.30 0.7985087
396.40 0.7989199
396.50 0.799103
396.60 0.7995745
396.70 0.8000545
396.80 0.8003891
396.90 0.8007844
397.00 0.8010443
397.10 0.801513
397.20 0.8017883
397.30 0.8021332
397.40 0.8024964
397.50 0.8028591
397.60 0.8032301
397.70 0.8036895
397.80 0.8041485
397.90 0.8045749
398.00 0.8049149
398.10 0.8052544
398.20 0.805645
398.30 0.8060932
398.40 0.8065392
398.50 0.806934
398.60 0.8072884
398.70 0.8075973
398.80 0.8078982
398.90 0.8082207
399.00 0.8085835
399.10 0.8089405
399.20 0.8093269
399.30 0.809713
399.40 0.8100985
399.50 0.8104836
399.60 0.8108799
399.70 0.8112801
399.80 0.8116799
399.90 0.8120791
400.00 0.8124775
400.10 0.8128644
400.20 0.8131541
400.30 0.8134957
400.40 0.8137675
400.50 0.8141989
400.60 0.8146358
400.70 0.8149144
400.80 0.8153177
400.90 0.8157667
401.00 0.8159535
401.10 0.8163212
401.20 0.8166816
401.30 0.8171877
401.40 0.8175929
401.50 0.8179441
401.60 0.8182956
401.70 0.818675
401.80 0.8190148
401.90 0.8192879
402.00 0.8197327
402.10 0.8199809
402.20 0.8202977
402.30 0.8207209
402.40 0.8212609
402.50 0.821408
402.60 0.8220364
402.70 0.8222884
402.80 0.8227279
402.90 0.8230312
403.00 0.8233003
403.10 0.8237043
403.20 0.823996
403.30 0.8243679
403.40 0.8247006
403.50 0.8250695
403.60 0.8254632
403.70 0.8259834
403.80 0.8262721
403.90 0.8266295
404.00 0.8269731
404.10 0.8273809
404.20 0.827645
404.30 0.8279087
404.40 0.8283556
404.50 0.8287714
404.60 0.8290339
404.70 0.8292959
404.80 0.829587
404.90 0.8301546
405.00 0.8305345
405.10 0.8309154
405.20 0.8312234
405.30 0.8315308
405.40 0.8319017
405.50 0.8322721
405.60 0.832642
405.70 0.8330114
405.80 0.8333804
405.90 0.8337489
406.00 0.8340769
406.10 0.8344045
406.20 0.8347316
406.30 0.8350584
406.40 0.8353958
406.50 0.8357854
406.60 0.8360383
406.70 0.8364171
406.80 0.8367851
406.90 0.8369885
407.00 0.8373411
407.10 0.8376932
407.20 0.8380449
407.30 0.8383962
407.40 0.838747
407.50 0.8390973
407.60 0.8394473
407.70 0.8397968
407.80 0.8401457
407.90 0.8404932
408.00 0.8408036
408.10 0.8411342
408.20 0.8414895
408.30 0.8418298
408.40 0.8421696
408.50 0.8426196
408.60 0.8428913
408.70 0.8431627
408.80 0.8434417
408.90 0.8437859
409.00 0.8441308
409.10 0.8444752
409.20 0.8448192
409.30 0.8451629
409.40 0.8455077
409.50 0.8459062
409.60 0.8463042
409.70 0.8466907
409.80 0.8470323
409.90 0.8473699
410.00 0.8475921
410.10 0.8479966
410.20 0.8483596
410.30 0.848712
410.40 0.8490607
410.50 0.8493988
410.60 0.8497365
410.70 0.8500556
410.80 0.8503016
410.90 0.8505473
411.00 0.8508503
411.10 0.8511742
411.20 0.8514976
411.30 0.8518399
411.40 0.8522549
411.50 0.8525295
411.60 0.8528037
411.70 0.8531023
411.80 0.8534989
411.90 0.8538952
412.00 0.8542909
412.10 0.8546863
412.20 0.8547572
412.30 0.8551559
412.40 0.8555691
412.50 0.8559161
412.60 0.8561937
412.70 0.8565206
412.80 0.8568592
412.90 0.8570489
413.00 0.8574386
413.10 0.8577912
413.20 0.8581432
413.30 0.8584948
413.40 0.8588458
413.50 0.8591774
413.60 0.8594449
413.70 0.8597526
413.80 0.86006
413.90 0.8603669
414.00 0.8606927
414.10 0.8610792
414.20 0.861465
414.30 0.86153
414.40 0.8619151
414.50 0.8622924
414.60 0.8626455
414.70 0.8628693
414.80 0.8631311
414.90 0.863514
415.00 0.8638965
415.10 0.8642784
415.20 0.8646355
415.30 0.8649147
415.40 0.8651935
415.50 0.8654717
415.60 0.8657402
415.70 0.8660083
415.80 0.8662878
415.90 0.8666035
416.00 0.8669189
416.10 0.8672399
416.20 0.8675848
416.30 0.8679293
416.40 0.8682733
416.50 0.8686131
416.60 0.8688301
416.70 0.8690516
416.80 0.8694295
416.90 0.8698005
417.00 0.8699924
417.10 0.8705428
417.20 0.8707577
417.30 0.8709766
417.40 0.8713405
417.50 0.8717037
417.60 0.8720183
417.70 0.8721457
417.80 0.8724637
417.90 0.8727811
418.00 0.8730983
418.10 0.873415
418.20 0.8737312
418.30 0.874049
418.40 0.8744079
418.50 0.8747062
418.60 0.8750042
418.70 0.8753018
418.80 0.8755989
418.90 0.8758958
419.00 0.8761922
419.10 0.8764882
419.20 0.876784
419.30 0.877081
419.40 0.8774364
419.50 0.8777914
419.60 0.878118
419.70 0.8783326
419.80 0.878547
419.90 0.8787852
420.00 0.8790999
420.10 0.8794141
420.20 0.879728
420.30 0.8800414
420.40 0.8803545
420.50 0.8806671
420.60 0.8809794
420.70 0.8812913
420.80 0.8816027
420.90 0.881912
421.00 0.882163
421.10 0.8824136
421.20 0.8826735
421.30 0.882962
421.40 0.88325
421.50 0.8835377
421.60 0.883825
421.70 0.8841119
421.80 0.8843986
421.90 0.8846972
422.00 0.8850352
422.10 0.8853577
422.20 0.8856198
422.30 0.8858815
422.40 0.886144
422.50 0.886441
422.60 0.8867375
422.70 0.8870336
422.80 0.8873294
422.90 0.8876248
423.00 0.8879198
423.10 0.8882144
423.20 0.8885087
423.30 0.8888025
423.40 0.889096
423.50 0.8893891
423.60 0.8896819
423.70 0.8899743
423.80 0.8902663
423.90 0.8905579
424.00 0.8908492
424.10 0.89114
424.20 0.8914305
424.30 0.8917207
424.40 0.8918613
424.50 0.8921504
424.60 0.8924391
424.70 0.8927275
424.80 0.8930154
424.90 0.8933031
425.00 0.8935903
425.10 0.8938771
425.20 0.8941637
425.30 0.8944498
425.40 0.8947354
425.50 0.8950191
425.60 0.8953025
425.70 0.8955856
425.80 0.8958683
425.90 0.8961506
426.00 0.8964326
426.10 0.8967142
426.20 0.8969953
426.30 0.8972762
426.40 0.8975567
426.50 0.8978368
426.60 0.8981166
426.70 0.8983961
426.80 0.8986751
426.90 0.8989534
427.00 0.8992167
427.10 0.8994795
427.20 0.8997421
427.30 0.9000043
427.40 0.9002662
427.50 0.9005278
427.60 0.9007889
427.70 0.9010498
427.80 0.9013104
427.90 0.9015705
428.00 0.9018304
428.10 0.9020899
428.20 0.902349
428.30 0.9026079
428.40 0.9028663
428.50 0.9031244
428.60 0.9033822
428.70 0.9036397
428.80 0.9038979
428.90 0.9041702
429.00 0.9044422
429.10 0.9047139
429.20 0.9049852
429.30 0.9052561
429.40 0.9055267
429.50 0.905797
429.60 0.9060668
429.70 0.9063364
429.80 0.9066056
429.90 0.9068744
430.00 0.9071428
430.10 0.9074111
430.20 0.9076788
430.30 0.9079463
430.40 0.9082134
430.50 0.9084801
430.60 0.9087466
430.70 0.9090127
430.80 0.9092784
430.90 0.9095438
431.00 0.9098088
431.10 0.9100735
431.20 0.9103378
431.30 0.9106014
431.40 0.9108592
431.50 0.9111166
431.60 0.9113737
431.70 0.9116305
431.80 0.9118869
431.90 0.9121429
432.00 0.9123986
432.10 0.912654
432.20 0.9129091
432.30 0.9131638
432.40 0.9134182
432.50 0.9136723
432.60 0.913926
432.70 0.9141794
432.80 0.9144325
432.90 0.9146853
433.00 0.9149377
433.10 0.9151898
433.20 0.9154415
433.30 0.9156902
433.40 0.9159016
433.50 0.9161127
433.60 0.9163235
433.70 0.916534
433.80 0.9168189
433.90 0.9171948
434.00 0.9174778
434.10 0.9177039
434.20 0.9179296
434.30 0.9181551
434.40 0.9183802
434.50 0.9186051
434.60 0.9188296
434.70 0.9190539
434.80 0.9192799
434.90 0.9195336
435.00 0.919787
435.10 0.9200401
435.20 0.9202928
435.30 0.9205452
435.40 0.9207972
435.50 0.9210489
435.60 0.9213003
435.70 0.9215514
435.80 0.9218021
435.90 0.9220525
436.00 0.9223026
436.10 0.9225524
436.20 0.9228018
436.30 0.9230312
436.40 0.9232377
436.50 0.9234649
436.60 0.9236918
436.70 0.9239183
436.80 0.9241445
436.90 0.9243704
437.00 0.924596
437.10 0.9248213
437.20 0.9250759
437.30 0.9253574
437.40 0.9256361
437.50 0.9258837
437.60 0.9261309
437.70 0.9263777
437.80 0.9266243
437.90 0.9268705
438.00 0.9271156
438.10 0.9273488
438.20 0.9275816
438.30 0.9276895
438.40 0.9279948
438.50 0.9281437
438.60 0.9283025
438.70 0.9285939
438.80 0.928885
438.90 0.9291758
439.00 0.9291806
439.10 0.9294708
439.20 0.9297555
439.30 0.9299736
439.40 0.9301915
439.50 0.9304091
439.60 0.9306177
439.70 0.9308577
439.80 0.9311651
439.90 0.9313909
440.00 0.9316163
440.10 0.9318414
440.20 0.9320666
440.30 0.932296
440.40 0.9325249
440.50 0.9327537
440.60 0.9329821
440.70 0.9332102
440.80 0.9334381
440.90 0.9336655
441.00 0.9338927
441.10 0.9341196
441.20 0.9343374
441.30 0.9344371
441.40 0.9346049
441.50 0.9348558
441.60 0.9351064
441.70 0.9352884
441.80 0.9355105
441.90 0.9357322
442.00 0.9359537
442.10 0.9361749
442.20 0.9363958
442.30 0.9366164
442.40 0.9368373
442.50 0.9370588
442.60 0.9372799
442.70 0.9374963
442.80 0.93771
442.90 0.937979
443.00 0.9381978
443.10 0.938355
443.20 0.938562
443.30 0.9388148
443.40 0.9390779
443.50 0.9393536
443.60 0.9396291
443.70 0.9396248
443.80 0.9398996
443.90 0.9401741
444.00 0.9403855
444.10 0.9405199
444.20 0.940682
444.30 0.9411319
444.40 0.9412399
444.50 0.9413478
444.60 0.941541
444.70 0.9418382
444.80 0.9420803
444.90 0.9422714
445.00 0.9424623
445.10 0.9426528
445.20 0.9428619
445.30 0.9430934
445.40 0.9433246
445.50 0.9435556
445.60 0.9437862
445.70 0.9440166
445.80 0.944225
445.90 0.9444134
446.00 0.9446015
446.10 0.9447894
446.20 0.9449782
446.30 0.9451424
446.40 0.9452828
446.50 0.9454804
446.60 0.9456776
446.70 0.9458745
446.80 0.9461071
446.90 0.9463723
447.00 0.9466372
447.10 0.9469018
447.20 0.946891
447.30 0.947155
447.40 0.9474187
447.50 0.9476821
447.60 0.94787
447.70 0.9479883
447.80 0.9481592
447.90 0.9484462
448.00 0.9486725
448.10 0.9488428
448.20 0.9490127
448.30 0.9491824
448.40 0.949352
448.50 0.9495212
448.60 0.9497303
448.70 0.9499763
448.80 0.9502163
448.90 0.9503839
449.00 0.9505512
449.10 0.9507183
449.20 0.9508853
449.30 0.9510589
449.40 0.9512947
449.50 0.9515303
449.60 0.9517429
449.70 0.9519347
449.80 0.9521262
449.90 0.9523173
450.00 0.9525083
450.10 0.9526989
450.20 0.9528894
450.30 0.9530794
450.40 0.953289
450.50 0.9534984
450.60 0.9537073
450.70 0.9539162
450.80 0.9541246
450.90 0.9543327
451.00 0.9544549
451.10 0.9545768
451.20 0.9548092
451.30 0.9550727
451.40 0.9551896
451.50 0.9553062
451.60 0.9555576
451.70 0.9558085
451.80 0.9559245
451.90 0.9560402
452.00 0.9562905
452.10 0.9565403
452.20 0.9567226
452.30 0.9569046
452.40 0.9570864
452.50 0.957268
452.60 0.9573893
452.70 0.9575364
452.80 0.9577071
452.90 0.9578776
453.00 0.9580478
453.10 0.9582178
453.20 0.9584083
453.30 0.9585987
453.40 0.9587887
453.50 0.9589785
453.60 0.959168
453.70 0.9593572
453.80 0.9595497
453.90 0.9597461
454.00 0.9599422
454.10 0.9601381
454.20 0.9602993
454.30 0.9604602
454.40 0.960621
454.50 0.9607814
454.60 0.9609417
454.70 0.9611144
454.80 0.9612986
454.90 0.9614825
455.00 0.961666
455.10 0.9618494
455.20 0.9620326
455.30 0.9622155
455.40 0.962398
455.50 0.9625804
455.60 0.9627626
455.70 0.9629444
455.80 0.9630898
455.90 0.963235
456.00 0.9633801
456.10 0.9635377
456.20 0.9637301
456.30 0.9639221
456.40 0.964114
456.50 0.9643056
456.60 0.9644968
456.70 0.9646879
456.80 0.9648787
456.90 0.9650692
457.00 0.9652594
457.10 0.9654495
457.20 0.9655841
457.30 0.9657509
457.40 0.9659175
457.50 0.9660838
457.60 0.9662499
457.70 0.9664158
457.80 0.9665815
457.90 0.9667469
458.00 0.966912
458.10 0.967077
458.20 0.9672417
458.30 0.9674061
458.40 0.9675704
458.50 0.9677343
458.60 0.9678981
458.70 0.9680686
458.80 0.9682415
458.90 0.9684144
459.00 0.968587
459.10 0.9687592
459.20 0.9689313
459.30 0.9690917
459.40 0.969252
459.50 0.969412
459.60 0.9695717
459.70 0.9697313
459.80 0.9698906
459.90 0.9700496
460.00 0.9702084
460.10 0.9703671
460.20 0.9705255
460.30 0.9706836
460.40 0.9708415
460.50 0.9709992
460.60 0.9711567
460.70 0.9713113
460.80 0.9714643
460.90 0.9716172
461.00 0.9717697
461.10 0.9719221
461.20 0.9720515
461.30 0.9721715
461.40 0.9722937
461.50 0.9724161
461.60 0.9725384
461.70 0.9726604
461.80 0.9728168
461.90 0.972973
462.00 0.973129
462.10 0.9732848
462.20 0.9734404
462.30 0.9735957
462.40 0.9737508
462.50 0.9739057
462.60 0.9740604
462.70 0.9742147
462.80 0.9743689
462.90 0.9745229
463.00 0.9746767
463.10 0.9748301
463.20 0.9749973
463.30 0.9751699
463.40 0.9753423
463.50 0.9755143
463.60 0.9756862
463.70 0.9758578
463.80 0.9760292
463.90 0.9761819
464.00 0.9763297
464.10 0.9764773
464.20 0.9766246
464.30 0.9767718
464.40 0.9769187
464.50 0.9770654
464.60 0.9772119
464.70 0.9773405
464.80 0.9774618
464.90 0.9775829
465.00 0.9777038
465.10 0.9778245
465.20 0.977945
465.30 0.9780827
465.40 0.9782316
465.50 0.9783804
465.60 0.978529
465.70 0.9786774
465.80 0.9788255
465.90 0.978965
466.00 0.9791024
466.10 0.9792395
466.20 0.9793764
466.30 0.979513
466.40 0.9796494
466.50 0.9797856
466.60 0.9799216
466.70 0.9800573
466.80 0.9801929
466.90 0.9803283
467.00 0.9804634
467.10 0.9805983
467.20 0.980733
467.30 0.9808672
467.40 0.9809936
467.50 0.9811179
467.60 0.981242
467.70 0.981366
467.80 0.9814897
467.90 0.9816291
468.00 0.9817748
468.10 0.9819203
468.20 0.9820654
468.30 0.982255
468.40 0.9824625
468.50 0.9824755
468.60 0.9826207
468.70 0.9828329
468.80 0.9830349
468.90 0.9831921
469.00 0.9832499
469.10 0.9833631
469.20 0.9835062
469.30 0.9836491
469.40 0.9837918
469.50 0.9839183
469.60 0.9840381
469.70 0.9841577
469.80 0.9842771
469.90 0.9844245
470.00 0.9845491
470.10 0.9846586
470.20 0.9847973
470.30 0.9849357
470.40 0.985074
470.50 0.985212
470.60 0.9853021
470.70 0.9853801
470.80 0.985458
470.90 0.9855355
471.00 0.9857624
471.10 0.9859286
471.20 0.9861146
471.30 0.9860676
471.40 0.9862681
471.50 0.9864685
471.60 0.9865696
471.70 0.9866458
471.80 0.9867714
471.90 0.986909
472.00 0.9870465
472.10 0.9871837
472.20 0.9873032
472.30 0.9874181
472.40 0.9875329
472.50 0.9876475
472.60 0.9877617
472.70 0.9878824
472.80 0.9880058
472.90 0.9881292
473.00 0.9882523
473.10 0.9883754
473.20 0.9884982
473.30 0.9886207
473.40 0.9887432
473.50 0.9888654
473.60 0.9889874
473.70 0.9891092
473.80 0.989231
473.90 0.9893526
474.00 0.9894739
474.10 0.9895951
474.20 0.9897099
474.30 0.9898219
474.40 0.9899337
474.50 0.9900454
474.60 0.9901575
474.70 0.9902761
474.80 0.9903947
474.90 0.990513
475.00 0.9906311
475.10 0.990749
475.20 0.9908668
475.30 0.9909843
475.40 0.9910835
475.50 0.991178
475.60 0.9912722
475.70 0.9913664
475.80 0.9914604
475.90 0.9915541
476.00 0.9916478
476.10 0.9917412
476.20 0.9918465
476.30 0.9919564
476.40 0.9920662
476.50 0.9921758
476.60 0.9922852
476.70 0.9923944
476.80 0.9925035
476.90 0.9926095
477.00 0.9927146
477.10 0.9928196
477.20 0.9929242
477.30 0.9930288
477.40 0.9931333
477.50 0.9932374
477.60 0.9933415
477.70 0.9934454
477.80 0.9935491
477.90 0.9936527
478.00 0.993756
478.10 0.9938592
478.20 0.9939623
478.30 0.994065
478.40 0.9941678
478.50 0.9942702
478.60 0.9943726
478.70 0.9944642
478.80 0.9945514
478.90 0.9946819
479.00 0.9948232
479.10 0.9949642
479.20 0.995105
479.30 0.9952457
479.40 0.9953611
479.50 0.9954617
479.60 0.9955621
479.70 0.9956623
479.80 0.9957625
479.90 0.9958623
480.00 0.9959621
480.10 0.9960616
480.20 0.9961611
480.30 0.9962603
480.40 0.9963594
480.50 0.9964582
480.60 0.996557
480.70 0.9966555
480.80 0.9967539
480.90 0.9968521
481.00 0.9969502
481.10 0.9970481
481.20 0.9971337
481.30 0.9972191
481.40 0.9973043
481.50 0.9973894
481.60 0.9974744
481.70 0.9975592
481.80 0.9976438
481.90 0.9977283
482.00 0.9978126
482.10 0.9978968
482.20 0.9979813
482.30 0.9980717
482.40 0.998162
482.50 0.9982521
482.60 0.9983421
482.70 0.9984319
482.80 0.9985216
482.90 0.998611
483.00 0.9987003
483.10 0.9987895
483.20 0.9988786
483.30 0.9989674
483.40 0.9990561
483.50 0.9991447
483.60 0.999233
483.70 0.9993078
483.80 0.9993826
483.90 0.9994572
484.00 0.9995316
484.10 0.9996059
484.20 0.9996892
484.30 0.9997764
484.40 0.9998633
484.50 0.9999502
484.60 1.000037
484.70 1.000125
484.80 1.000228
484.90 1.000332
485.00 1.000435
485.10 1.000538
485.20 1.000641
485.30 1.000743
485.40 1.000846
485.50 1.000948
485.60 1.001051
485.70 1.001129
485.80 1.001207
485.90 1.001286
486.00 1.001364
486.10 1.001442
486.20 1.00152
486.30 1.001597
486.40 1.001675
486.50 1.001752
486.60 1.001829
486.70 1.001908
486.80 1.00201
486.90 1.002111
487.00 1.002213
487.10 1.002314
487.20 1.00239
487.30 1.002466
487.40 1.002542
487.50 1.002618
487.60 1.002694
487.70 1.00277
487.80 1.002845
487.90 1.00292
488.00 1.002995
488.10 1.00307
488.20 1.003143
488.30 1.003187
488.40 1.003231
488.50 1.003275
488.60 1.003319
488.70 1.003363
488.80 1.00346
488.90 1.003558
489.00 1.003645
489.10 1.003709
489.20 1.003772
489.30 1.003835
489.40 1.003898
489.50 1.003961
489.60 1.004024
489.70 1.004087
489.80 1.00417
489.90 1.004257
490.00 1.004345
490.10 1.004432
490.20 1.004519
490.30 1.004606
490.40 1.004653
490.50 1.004701
490.60 1.004749
490.70 1.004796
490.80 1.004888
490.90 1.005119
491.00 1.005052
491.10 1.005213
491.20 1.00526
491.30 1.005306
491.40 1.005383
491.50 1.005399
491.60 1.005575
491.70 1.00557
491.80 1.005582
491.90 1.005811
492.00 1.005857
492.10 1.005828
492.20 1.005987
492.30 1.005919
492.40 1.006068
492.50 1.006083
492.60 1.00616
492.70 1.006205
492.80 1.00625
492.90 1.006294
493.00 1.006341
493.10 1.006424
493.20 1.006507
493.30 1.006589
493.40 1.006671
493.50 1.006754
493.60 1.006827
493.70 1.00684
493.80 1.006853
493.90 1.006915
494.00 1.007051
494.10 1.007165
494.20 1.007229
494.30 1.007294
494.40 1.007358
494.50 1.007422
494.60 1.007479
494.70 1.007444
494.80 1.007438
494.90 1.007513
495.00 1.007588
495.10 1.007663
495.20 1.00772
495.30 1.007776
495.40 1.007832
495.50 1.007889
495.60 1.007945
495.70 1.008001
495.80 1.008056
495.90 1.008112
496.00 1.008168
496.10 1.008247
496.20 1.00837
496.30 1.008403
496.40 1.008435
496.50 1.008468
496.60 1.0085
496.70 1.008557
496.80 1.008614
496.90 1.008671
497.00 1.008728
497.10 1.008784
497.20 1.008841
497.30 1.008895
497.40 1.008943
497.50 1.008991
497.60 1.009065
497.70 1.009186
497.80 1.009221
497.90 1.009256
498.00 1.009291
498.10 1.009326
498.20 1.00936
498.30 1.009395
498.40 1.00943
498.50 1.009464
498.60 1.009498
498.70 1.009646
498.80 1.009794
498.90 1.00981
499.00 1.009826
499.10 1.009841
499.20 1.009855
499.30 1.009882
499.40 1.009952
499.50 1.010021
499.60 1.01009
499.70 1.010158
499.80 1.010218
499.90 1.010277
500.00 1.010336
500.10 1.010395
500.20 1.010446
500.30 1.010483
500.40 1.010518
500.50 1.010553
500.60 1.010589
500.70 1.010624
500.80 1.010667
500.90 1.010725
501.00 1.010784
501.10 1.010842
501.20 1.010799
501.30 1.010833
501.40 1.010903
501.50 1.010981
501.60 1.010972
501.70 1.01105
501.80 1.011004
501.90 1.011038
502.00 1.011088
502.10 1.01117
502.20 1.011245
502.30 1.011215
502.40 1.011218
502.50 1.011288
502.60 1.011358
502.70 1.011426
502.80 1.011496
502.90 1.011565
503.00 1.01162
503.10 1.011647
503.20 1.011672
503.30 1.011698
503.40 1.011721
503.50 1.01174
503.60 1.011757
503.70 1.011774
503.80 1.011799
503.90 1.011879
504.00 1.011941
504.10 1.011966
504.20 1.011991
504.30 1.012016
504.40 1.012043
504.50 1.012074
504.60 1.012133
504.70 1.01224
504.80 1.012194
504.90 1.0123
505.00 1.012228
505.10 1.012258
505.20 1.01229
505.30 1.012328
505.40 1.012364
505.50 1.0124
505.60 1.012434
505.70 1.012459
505.80 1.012484
505.90 1.012511
506.00 1.012536
506.10 1.012561
506.20 1.012587
506.30 1.01262
506.40 1.012652
506.50 1.012683
506.60 1.012716
506.70 1.012747
506.80 1.012779
506.90 1.012811
507.00 1.012842
507.10 1.012864
507.20 1.012874
507.30 1.012903
507.40 1.012931
507.50 1.012959
507.60 1.012987
507.70 1.013015
507.80 1.013043
507.90 1.01307
508.00 1.013098
508.10 1.013125
508.20 1.013152
508.30 1.013179
508.40 1.013207
508.50 1.013234
508.60 1.013261
508.70 1.013287
508.80 1.013311
508.90 1.013343
509.00 1.013383
509.10 1.013419
509.20 1.013443
509.30 1.013467
509.40 1.013492
509.50 1.013515
509.60 1.013539
509.70 1.013562
509.80 1.013587
509.90 1.01361
510.00 1.013633
510.10 1.013656
510.20 1.013679
510.30 1.013704
510.40 1.013731
510.50 1.013758
510.60 1.013786
510.70 1.013812
510.80 1.013839
510.90 1.013865
511.00 1.013892
511.10 1.013918
511.20 1.013945
511.30 1.01397
511.40 1.013997
511.50 1.014023
511.60 1.014047
511.70 1.014067
511.80 1.014088
511.90 1.014108
512.00 1.014128
512.10 1.014148
512.20 1.014167
512.30 1.014186
512.40 1.014199
512.50 1.014212
512.60 1.014225
512.70 1.014237
512.80 1.01425
512.90 1.014262
513.00 1.014276
513.10 1.014288
513.20 1.0143
513.30 1.014312
513.40 1.014324
513.50 1.014336
513.60 1.014348
513.70 1.01436
513.80 1.014372
513.90 1.014384
514.00 1.014394
514.10 1.014405
514.20 1.014415
514.30 1.014425
514.40 1.014435
514.50 1.014445
514.60 1.014455
514.70 1.014465
514.80 1.014475
514.90 1.014485
515.00 1.014494
515.10 1.014504
515.20 1.014513
515.30 1.014522
515.40 1.014531
515.50 1.01454
515.60 1.014549
515.70 1.014558
515.80 1.014568
515.90 1.014577
516.00 1.014586
516.10 1.014594
516.20 1.014603
516.30 1.014611
516.40 1.014619
516.50 1.014628
516.60 1.014636
516.70 1.014644
516.80 1.014652
516.90 1.014662
517.00 1.01467
517.10 1.014677
517.20 1.014685
517.30 1.014693
517.40 1.014701
517.50 1.014708
517.60 1.014716
517.70 1.014723
517.80 1.014731
517.90 1.014738
518.00 1.014745
518.10 1.014752
518.20 1.01476
518.30 1.014767
518.40 1.014774
518.50 1.014781
518.60 1.014788
518.70 1.014794
518.80 1.014801
518.90 1.014807
519.00 1.014814
519.10 1.014816
519.20 1.014815
519.30 1.014813
519.40 1.014811
519.50 1.014809
519.60 1.014807
519.70 1.014805
519.80 1.014803
519.90 1.014801
520.00 1.014799
520.10 1.014796
520.20 1.014794
520.30 1.014792
520.40 1.014789
520.50 1.014786
520.60 1.014784
520.70 1.014781
520.80 1.014778
520.90 1.014775
521.00 1.014772
521.10 1.014769
521.20 1.014766
521.30 1.014763
521.40 1.01476
521.50 1.014755
521.60 1.014752
521.70 1.014749
521.80 1.014745
521.90 1.014741
522.00 1.014738
522.10 1.014734
522.20 1.01473
522.30 1.014726
522.40 1.014722
522.50 1.014718
522.60 1.014714
522.70 1.01471
522.80 1.014706
522.90 1.014701
523.00 1.014697
523.10 1.014693
523.20 1.014688
523.30 1.014683
523.40 1.014679
523.50 1.014674
523.60 1.014669
523.70 1.014664
523.80 1.014658
523.90 1.014653
524.00 1.014648
524.10 1.014643
524.20 1.014638
524.30 1.014628
524.40 1.014616
524.50 1.014603
524.60 1.01459
524.70 1.014577
524.80 1.014564
524.90 1.01455
525.00 1.014536
525.10 1.014523
525.20 1.01451
525.30 1.014497
525.40 1.014483
525.50 1.01447
525.60 1.014455
525.70 1.014441
525.80 1.014428
525.90 1.014414
526.00 1.0144
526.10 1.014386
526.20 1.014372
526.30 1.014357
526.40 1.014343
526.50 1.014329
526.60 1.014315
526.70 1.014301
526.80 1.014286
526.90 1.014272
527.00 1.014257
527.10 1.014242
527.20 1.014228
527.30 1.014213
527.40 1.014198
527.50 1.014184
527.60 1.014168
527.70 1.014153
527.80 1.014138
527.90 1.014123
528.00 1.014108
528.10 1.014093
528.20 1.014078
528.30 1.014061
528.40 1.014046
528.50 1.014031
528.60 1.014015
528.70 1.014
528.80 1.013984
528.90 1.013968
529.00 1.013952
529.10 1.013937
529.20 1.013921
529.30 1.013905
529.40 1.013889
529.50 1.013872
529.60 1.013852
529.70 1.013832
529.80 1.013812
529.90 1.013792
530.00 1.013772
530.10 1.013752
530.20 1.013732
530.30 1.013711
530.40 1.013691
530.50 1.01367
530.60 1.01365
530.70 1.013629
530.80 1.013609
530.90 1.013589
531.00 1.013567
531.10 1.013547
531.20 1.013526
531.30 1.013505
531.40 1.013484
531.50 1.013463
531.60 1.013442
531.70 1.013421
531.80 1.0134
531.90 1.013378
532.00 1.013357
532.10 1.013336
532.20 1.013315
532.30 1.013294
532.40 1.013272
532.50 1.013251
532.60 1.013229
532.70 1.013208
532.80 1.013186
532.90 1.013164
533.00 1.013143
533.10 1.013121
533.20 1.0131
533.30 1.013077
533.40 1.013056
533.50 1.013034
533.60 1.013012
533.70 1.012989
533.80 1.012967
533.90 1.012945
534.00 1.012923
534.10 1.012901
534.20 1.012878
534.30 1.012856
534.40 1.012834
534.50 1.012812
534.60 1.012788
534.70 1.012766
534.80 1.012742
534.90 1.012708
535.00 1.012674
535.10 1.012641
535.20 1.012608
535.30 1.012573
535.40 1.01254
535.50 1.012505
535.60 1.012472
535.70 1.012439
535.80 1.012404
535.90 1.01237
536.00 1.012337
536.10 1.012302
536.20 1.012268
536.30 1.012235
536.40 1.0122
536.50 1.012166
536.60 1.012132
536.70 1.012097
536.80 1.012063
536.90 1.012029
537.00 1.011994
537.10 1.01196
537.20 1.011925
537.30 1.01189
537.40 1.011856
537.50 1.011821
537.60 1.011786
537.70 1.011752
537.80 1.011716
537.90 1.011682
538.00 1.011647
538.10 1.011612
538.20 1.011577
538.30 1.011543
538.40 1.011507
538.50 1.011472
538.60 1.011437
538.70 1.011402
538.80 1.011367
538.90 1.011331
539.00 1.011296
539.10 1.011261
539.20 1.011225
539.30 1.01119
539.40 1.011155
539.50 1.011118
539.60 1.011083
539.70 1.011048
539.80 1.011012
539.90 1.010976
540.00 1.01094
540.10 1.010904
540.20 1.010864
540.30 1.010821
540.40 1.010779
540.50 1.010735
540.60 1.010693
540.70 1.01065
540.80 1.010607
540.90 1.010565
541.00 1.010521
541.10 1.010479
541.20 1.010435
541.30 1.010392
541.40 1.010349
541.50 1.010306
541.60 1.010263
541.70 1.01022
541.80 1.010176
541.90 1.010133
542.00 1.01009
542.10 1.010046
542.20 1.010003
542.30 1.00996
542.40 1.009916
542.50 1.009873
542.60 1.009829
542.70 1.009785
542.80 1.009742
542.90 1.009698
543.00 1.009654
543.10 1.009611
543.20 1.009567
543.30 1.009523
543.40 1.009479
543.50 1.009435
543.60 1.009392
543.70 1.009348
543.80 1.009304
543.90 1.00926
544.00 1.009216
544.10 1.009172
544.20 1.009127
544.30 1.009083
544.40 1.009039
544.50 1.008995
544.60 1.008951
544.70 1.008906
544.80 1.008862
544.90 1.008818
545.00 1.008773
545.10 1.008729
545.20 1.008684
545.30 1.00864
545.40 1.008595
545.50 1.008551
545.60 1.008506
545.70 1.008461
545.80 1.008417
545.90 1.008372
546.00 1.008328
546.10 1.008283
546.20 1.008238
546.30 1.008194
546.40 1.008149
546.50 1.008104
546.60 1.008059
546.70 1.008014
546.80 1.007969
546.90 1.007924
547.00 1.007879
547.10 1.007834
547.20 1.007789
547.30 1.007744
547.40 1.007699
547.50 1.007654
547.60 1.007609
547.70 1.007563
547.80 1.007518
547.90 1.007473
548.00 1.007428
548.10 1.007382
548.20 1.007337
548.30 1.007289
548.40 1.007236
548.50 1.007184
548.60 1.007132
548.70 1.00708
548.80 1.007028
548.90 1.006976
549.00 1.006924
549.10 1.006871
549.20 1.006819
549.30 1.006767
549.40 1.006714
549.50 1.006662
549.60 1.00661
549.70 1.006557
549.80 1.006505
549.90 1.006452
550.00 1.0064
550.10 1.006347
550.20 1.006295
550.30 1.006242
550.40 1.006189
550.50 1.006137
550.60 1.006084
550.70 1.006031
550.80 1.005978
550.90 1.005926
551.00 1.005871
551.10 1.005809
551.20 1.005746
551.30 1.005684
551.40 1.005621
551.50 1.005558
551.60 1.005496
551.70 1.005433
551.80 1.00537
551.90 1.005308
552.00 1.005245
552.10 1.005182
552.20 1.005119
552.30 1.005056
552.40 1.004994
552.50 1.004931
552.60 1.004868
552.70 1.004805
552.80 1.004742
552.90 1.004679
553.00 1.004616
553.10 1.004553
553.20 1.00449
553.30 1.004427
553.40 1.004364
553.50 1.004301
553.60 1.004238
553.70 1.004175
553.80 1.004112
553.90 1.004048
554.00 1.003985
554.10 1.003922
554.20 1.003859
554.30 1.003796
554.40 1.003732
554.50 1.003669
554.60 1.003606
554.70 1.003543
554.80 1.003479
554.90 1.003416
555.00 1.003353
555.10 1.003289
555.20 1.003226
555.30 1.003162
555.40 1.003099
555.50 1.003035
555.60 1.002972
555.70 1.002908
555.80 1.002845
555.90 1.002781
556.00 1.002718
556.10 1.002654
556.20 1.002591
556.30 1.002527
556.40 1.002464
556.50 1.0024
556.60 1.002333
556.70 1.002267
556.80 1.0022
556.90 1.002133
557.00 1.002067
557.10 1.002
557.20 1.001933
557.30 1.001866
557.40 1.0018
557.50 1.001733
557.60 1.001666
557.70 1.001599
557.80 1.001533
557.90 1.001466
558.00 1.001399
558.10 1.001332
558.20 1.001265
558.30 1.001198
558.40 1.001132
558.50 1.001065
558.60 1.000998
558.70 1.000931
558.80 1.000864
558.90 1.000797
559.00 1.00073
559.10 1.000663
559.20 1.000596
559.30 1.000529
559.40 1.000462
559.50 1.000395
559.60 1.000327
559.70 1.00026
559.80 1.000193
559.90 1.000126
560.00 1.000059
560.10 0.9999917
560.20 0.9999246
560.30 0.9998574
560.40 0.9997902
560.50 0.9997229
560.60 0.9996557
560.70 0.9995884
560.80 0.9995211
560.90 0.9994538
561.00 0.9993866
561.10 0.9993192
561.20 0.9992519
561.30 0.9991845
561.40 0.9991171
561.50 0.9990497
561.60 0.9989823
561.70 0.9989149
561.80 0.9988475
561.90 0.99878
562.00 0.9987126
562.10 0.998644
562.20 0.9985735
562.30 0.9985031
562.40 0.9984327
562.50 0.9983622
562.60 0.9982918
562.70 0.9982212
562.80 0.9981508
562.90 0.9980803
563.00 0.9980098
563.10 0.9979392
563.20 0.9978687
563.30 0.9977981
563.40 0.9977276
563.50 0.997657
563.60 0.9975864
563.70 0.9975158
563.80 0.9974452
563.90 0.9973746
564.00 0.9973039
564.10 0.9972332
564.20 0.9971626
564.30 0.9970919
564.40 0.9970213
564.50 0.9969505
564.60 0.9968798
564.70 0.9968091
564.80 0.9967383
564.90 0.9966658
565.00 0.996589
565.10 0.9965122
565.20 0.9964354
565.30 0.9963586
565.40 0.9962817
565.50 0.9962049
565.60 0.996128
565.70 0.9960512
565.80 0.9959743
565.90 0.9958975
566.00 0.9958206
566.10 0.9957437
566.20 0.9956668
566.30 0.9955899
566.40 0.995513
566.50 0.995436
566.60 0.9953591
566.70 0.9952822
566.80 0.9952053
566.90 0.9951283
567.00 0.9950514
567.10 0.9949744
567.20 0.9948974
567.30 0.9948204
567.40 0.9947434
567.50 0.9946665
567.60 0.9945895
567.70 0.9945108
567.80 0.994425
567.90 0.9943392
568.00 0.9942534
568.10 0.9941677
568.20 0.9940819
568.30 0.9939961
568.40 0.9939103
568.50 0.9938245
568.60 0.9937388
568.70 0.993653
568.80 0.9935672
568.90 0.9934814
569.00 0.9933957
569.10 0.9933099
569.20 0.9932241
569.30 0.9931383
569.40 0.9930526
569.50 0.9929668
569.60 0.9928809
569.70 0.9927951
569.80 0.9927093
569.90 0.9926236
570.00 0.9925378
570.10 0.992452
570.20 0.9923661
570.30 0.9922804
570.40 0.9921946
570.50 0.9921088
570.60 0.992023
570.70 0.9919371
570.80 0.9918514
570.90 0.9917656
571.00 0.9916798
571.10 0.9915939
571.20 0.9915082
571.30 0.9914224
571.40 0.9913365
571.50 0.9912507
571.60 0.9911649
571.70 0.9910792
571.80 0.9909933
571.90 0.9909075
572.00 0.9908217
572.10 0.9907358
572.20 0.9906501
572.30 0.9905643
572.40 0.9904784
572.50 0.9903926
572.60 0.9903069
572.70 0.990221
572.80 0.9901352
572.90 0.9900494
573.00 0.9899635
573.10 0.9898778
573.20 0.9897919
573.30 0.9897061
573.40 0.98962
573.50 0.9895335
573.60 0.9894471
573.70 0.9893606
573.80 0.9892741
573.90 0.9891876
574.00 0.9891011
574.10 0.9890146
574.20 0.9889282
574.30 0.9888417
574.40 0.9887553
574.50 0.9886688
574.60 0.9885823
574.70 0.9884958
574.80 0.9884093
574.90 0.9883229
575.00 0.9882364
575.10 0.9881499
575.20 0.9880634
575.30 0.9879769
575.40 0.9878904
575.50 0.9878041
575.60 0.9877176
575.70 0.9876311
575.80 0.9875446
575.90 0.9874581
576.00 0.9873716
576.10 0.9872851
576.20 0.9871987
576.30 0.9871123
576.40 0.9870258
576.50 0.9869393
576.60 0.9868528
576.70 0.9867663
576.80 0.9866799
576.90 0.9865935
577.00 0.986507
577.10 0.9864205
577.20 0.986334
577.30 0.9862475
577.40 0.9861611
577.50 0.9860747
577.60 0.9859856
577.70 0.9858922
577.80 0.9857988
577.90 0.9857055
578.00 0.9856121
578.10 0.9855188
578.20 0.9854254
578.30 0.9853321
578.40 0.9852388
578.50 0.9851455
578.60 0.9850521
578.70 0.9849588
578.80 0.9848655
578.90 0.9847722
579.00 0.984679
579.10 0.9845847
579.20 0.9844813
579.30 0.9843777
579.40 0.9842742
579.50 0.9841708
579.60 0.9840672
579.70 0.9839638
579.80 0.9838604
579.90 0.983757
580.00 0.9836535
580.10 0.9835538
580.20 0.9834598
580.30 0.983366
580.40 0.9832721
580.50 0.9831782
580.60 0.9830844
580.70 0.9829905
580.80 0.9828967
580.90 0.9828029
581.00 0.982709
581.10 0.9826152
581.20 0.9825214
581.30 0.9824276
581.40 0.9823338
581.50 0.9822399
581.60 0.9821462
581.70 0.9820523
581.80 0.9819586
581.90 0.9818648
582.00 0.981771
582.10 0.9816753
582.20 0.981576
582.30 0.9814769
582.40 0.9813777
582.50 0.9812786
582.60 0.9811795
582.70 0.9810804
582.80 0.9809813
582.90 0.9808821
583.00 0.9807831
583.10 0.980684
583.20 0.980585
583.30 0.9804859
583.40 0.9803869
583.50 0.9802879
583.60 0.9801918
583.70 0.9801006
583.80 0.9800094
583.90 0.9799183
584.00 0.979827
584.10 0.9797359
584.20 0.9796448
584.30 0.9795536
584.40 0.9794624
584.50 0.9793713
584.60 0.9792802
584.70 0.979189
584.80 0.9790979
584.90 0.9790043
585.00 0.9788993
585.10 0.9787943
585.20 0.9786875
585.30 0.9785779
585.40 0.9784683
585.50 0.9783588
585.60 0.9782493
585.70 0.9781398
585.80 0.9780303
585.90 0.9779208
586.00 0.9778113
586.10 0.9777019
586.20 0.9775985
586.30 0.9775052
586.40 0.9774117
586.50 0.9773184
586.60 0.977225
586.70 0.9771317
586.80 0.9770383
586.90 0.976945
587.00 0.9768516
587.10 0.9767583
587.20 0.9766649
587.30 0.9765715
587.40 0.9763874
587.50 0.9763737
587.60 0.9761968
587.70 0.9760995
587.80 0.9760748
587.90 0.9759019
588.00 0.9757593
588.10 0.9756661
588.20 0.9755729
588.30 0.9754797
588.40 0.9753865
588.50 0.9752933
588.60 0.9752001
588.70 0.975107
588.80 0.9750138
588.90 0.9749206
589.00 0.9748214
589.10 0.9747124
589.20 0.9746034
589.30 0.9744945
589.40 0.9743855
589.50 0.9742766
589.60 0.9741676
589.70 0.9740587
589.80 0.9739499
589.90 0.973841
590.00 0.973734
590.10 0.97363
590.20 0.973526
590.30 0.973422
590.40 0.9733181
590.50 0.9732141
590.60 0.9731101
590.70 0.9730063
590.80 0.9729038
590.90 0.9728021
591.00 0.9727003
591.10 0.9725986
591.20 0.9724969
591.30 0.9723951
591.40 0.9722935
591.50 0.9721918
591.60 0.9720875
591.70 0.971979
591.80 0.9718703
591.90 0.9717618
592.00 0.9716533
592.10 0.9715448
592.20 0.9714364
592.30 0.9713279
592.40 0.9712195
592.50 0.9711111
592.60 0.9710027
592.70 0.9708943
592.80 0.9707859
592.90 0.9706775
593.00 0.9705691
593.10 0.9704608
593.20 0.9703525
593.30 0.9702443
593.40 0.970136
593.50 0.9700278
593.60 0.9699195
593.70 0.9698113
593.80 0.9697032
593.90 0.969595
594.00 0.9694868
594.10 0.9693787
594.20 0.9692705
594.30 0.9691624
594.40 0.9690543
594.50 0.9689462
594.60 0.9688382
594.70 0.9687302
594.80 0.9686222
594.90 0.9685142
595.00 0.9684062
595.10 0.968298
595.20 0.9681894
595.30 0.9680809
595.40 0.9679724
595.50 0.9678639
595.60 0.9677553
595.70 0.9676468
595.80 0.9675383
595.90 0.9674299
596.00 0.9673215
596.10 0.9672131
596.20 0.9671047
596.30 0.9669963
596.40 0.966888
596.50 0.9667797
596.60 0.9666714
596.70 0.9665538
596.80 0.9664304
596.90 0.9663071
597.00 0.9661839
597.10 0.9660607
597.20 0.9659375
597.30 0.9658144
597.40 0.9656912
597.50 0.9655682
597.60 0.9654499
597.70 0.9653395
597.80 0.9652291
597.90 0.9651188
598.00 0.9650084
598.10 0.9648981
598.20 0.9647879
598.30 0.9646776
598.40 0.9645673
598.50 0.9644571
598.60 0.9643469
598.70 0.9642367
598.80 0.9641265
598.90 0.9640164
599.00 0.9639063
599.10 0.9637961
599.20 0.9636861
599.30 0.963576
599.40 0.9634612
599.50 0.9633464
599.60 0.9632318
599.70 0.963117
599.80 0.9630023
599.90 0.9628876
600.00 0.9627731
600.10 0.9626584
600.20 0.9625438
600.30 0.9624293
600.40 0.9623147
600.50 0.9622002
600.60 0.9620856
600.70 0.9619712
600.80 0.9618567
600.90 0.9617423
601.00 0.9616279
601.10 0.9615135
601.20 0.9613991
601.30 0.9612847
601.40 0.9611749
601.50 0.9610651
601.60 0.9609553
601.70 0.9608455
601.80 0.9607356
601.90 0.9606259
602.00 0.9605162
602.10 0.9604065
602.20 0.9602967
602.30 0.960187
602.40 0.9600774
602.50 0.9599678
602.60 0.9598582
602.70 0.9596976
602.80 0.9595345
602.90 0.9594148
603.00 0.9592953
603.10 0.9591757
603.20 0.9590561
603.30 0.9589365
603.40 0.9588171
603.50 0.9586976
603.60 0.9585782
603.70 0.9584587
603.80 0.9583393
603.90 0.9582199
604.00 0.9581006
604.10 0.9579813
604.20 0.9578619
604.30 0.9577427
604.40 0.9576234
604.50 0.9575174
604.60 0.9574113
604.70 0.9573053
604.80 0.9571994
604.90 0.9570934
605.00 0.9569874
605.10 0.9568815
605.20 0.9567756
605.30 0.9566696
605.40 0.9565638
605.50 0.9564479
605.60 0.9563321
605.70 0.9562163
605.80 0.9561004
605.90 0.9559847
606.00 0.9558689
606.10 0.9557407
606.20 0.9556125
606.30 0.9554844
606.40 0.9553563
606.50 0.9551908
606.60 0.9550254
606.70 0.9549348
606.80 0.9549189
606.90 0.9547536
607.00 0.954663
607.10 0.9544978
607.20 0.9543326
607.30 0.9542048
607.40 0.954077
607.50 0.9539493
607.60 0.9538216
607.70 0.9537063
607.80 0.953591
607.90 0.9534759
608.00 0.9533607
608.10 0.9532455
608.20 0.9531303
608.30 0.9530239
608.40 0.9529175
608.50 0.9528113
608.60 0.9527049
608.70 0.952582
608.80 0.9524517
608.90 0.9523214
609.00 0.9521911
609.10 0.952061
609.20 0.9519308
609.30 0.9518128
609.40 0.9516948
609.50 0.9515769
609.60 0.9514591
609.70 0.9513412
609.80 0.9512234
609.90 0.9511056
610.00 0.9509879
610.10 0.9508701
610.20 0.9507524
610.30 0.9506347
610.40 0.9505171
610.50 0.9503994
610.60 0.9502818
610.70 0.9501642
610.80 0.9500467
610.90 0.9499223
611.00 0.949798
611.10 0.9496739
611.20 0.9495497
611.30 0.9494255
611.40 0.9493014
611.50 0.9491772
611.60 0.9490531
611.70 0.9489291
611.80 0.9488051
611.90 0.9486811
612.00 0.9485571
612.10 0.9484332
612.20 0.9483093
612.30 0.9481854
612.40 0.9480591
612.50 0.947933
612.60 0.9478067
612.70 0.9476805
612.80 0.9475544
612.90 0.9474282
613.00 0.9473021
613.10 0.9471761
613.20 0.94705
613.30 0.946924
613.40 0.9467981
613.50 0.9466722
613.60 0.9465463
613.70 0.9464204
613.80 0.9462946
613.90 0.9461688
614.00 0.946043
614.10 0.9459172
614.20 0.9457915
614.30 0.9456659
614.40 0.9455328
614.50 0.9453997
614.60 0.9452668
614.70 0.9451338
614.80 0.9450068
614.90 0.9448811
615.00 0.9447553
615.10 0.9446297
615.20 0.9445041
615.30 0.9443785
615.40 0.9442529
615.50 0.9441273
615.60 0.9440018
615.70 0.9438764
615.80 0.9437509
615.90 0.9436255
616.00 0.9435001
616.10 0.9433747
616.20 0.9432493
616.30 0.9431241
616.40 0.9429988
616.50 0.9428736
616.60 0.9427484
616.70 0.9426232
616.80 0.9424981
616.90 0.9423703
617.00 0.9422427
617.10 0.9421151
617.20 0.9419875
617.30 0.9418599
617.40 0.9417324
617.50 0.9416049
617.60 0.9414775
617.70 0.9413501
617.80 0.9412227
617.90 0.9410953
618.00 0.940968
618.10 0.9408407
618.20 0.9407135
618.30 0.9405862
618.40 0.940459
618.50 0.9403319
618.60 0.9402048
618.70 0.9400777
618.80 0.9399506
618.90 0.9398236
619.00 0.9396966
619.10 0.9395696
619.20 0.9394427
619.30 0.9393158
619.40 0.9391889
619.50 0.9390621
619.60 0.9389353
619.70 0.9388085
619.80 0.9386818
619.90 0.9385551
620.00 0.9384284
620.10 0.9383018
620.20 0.9381752
620.30 0.9380486
620.40 0.9379221
620.50 0.9377956
620.60 0.9376691
620.70 0.9375428
620.80 0.9374164
620.90 0.9372871
621.00 0.9371531
621.10 0.9370189
621.20 0.9368849
621.30 0.9367509
621.40 0.9366169
621.50 0.936483
621.60 0.936349
621.70 0.9362152
621.80 0.9360814
621.90 0.9359476
622.00 0.9358139
622.10 0.9356801
622.20 0.9355464
622.30 0.9354129
622.40 0.9352792
622.50 0.9351456
622.60 0.9350122
622.70 0.9348787
622.80 0.9347452
622.90 0.9346118
623.00 0.9344784
623.10 0.9343451
623.20 0.9342118
623.30 0.9340785
623.40 0.9339454
623.50 0.9338122
623.60 0.933679
623.70 0.9335459
623.80 0.9334128
623.90 0.9332797
624.00 0.9331468
624.10 0.9330138
624.20 0.9328809
624.30 0.932748
624.40 0.9326151
624.50 0.9324824
624.60 0.9323496
624.70 0.9322169
624.80 0.9320841
624.90 0.9319515
625.00 0.9318189
625.10 0.9316862
625.20 0.9315537
625.30 0.9314212
625.40 0.9312888
625.50 0.9311563
625.60 0.9310239
625.70 0.9308915
625.80 0.9307592
625.90 0.9306269
626.00 0.9304947
626.10 0.9303624
626.20 0.9302302
626.30 0.9300981
626.40 0.929966
626.50 0.9298339
626.60 0.9297019
626.70 0.9295699
626.80 0.9294379
626.90 0.929306
627.00 0.9291741
627.10 0.9290413
627.20 0.9289056
627.30 0.92877
627.40 0.9286344
627.50 0.9284989
627.60 0.9283634
627.70 0.928228
627.80 0.9280926
627.90 0.9279572
628.00 0.9278219
628.10 0.9276866
628.20 0.9275513
628.30 0.9274162
628.40 0.927281
628.50 0.9271459
628.60 0.9270108
628.70 0.9268757
628.80 0.9267407
628.90 0.9266058
629.00 0.9264708
629.10 0.9263359
629.20 0.926201
629.30 0.9260662
629.40 0.9259315
629.50 0.9257967
629.60 0.925662
629.70 0.9255273
629.80 0.9253927
629.90 0.9252581
630.00 0.9251236
630.10 0.924989
630.20 0.9248545
630.30 0.9247201
630.40 0.9245857
630.50 0.9244512
630.60 0.9243168
630.70 0.9241826
630.80 0.9240483
630.90 0.923914
631.00 0.9237799
631.10 0.9236457
631.20 0.9235115
631.30 0.9233774
631.40 0.9232434
631.50 0.9231093
631.60 0.9229753
631.70 0.9228415
631.80 0.9227075
631.90 0.9225736
632.00 0.9224398
632.10 0.9223061
632.20 0.9221723
632.30 0.9220385
632.40 0.9219049
632.50 0.9217713
632.60 0.9216376
632.70 0.9215042
632.80 0.9213706
632.90 0.9212371
633.00 0.9211037
633.10 0.9209703
633.20 0.9208369
633.30 0.9207036
633.40 0.9205671
633.50 0.920428
633.60 0.9202889
633.70 0.92015
633.80 0.920011
633.90 0.9198722
634.00 0.9197333
634.10 0.9195944
634.20 0.9194557
634.30 0.9193169
634.40 0.9191783
634.50 0.9190396
634.60 0.9189009
634.70 0.9187624
634.80 0.9186239
634.90 0.9184854
635.00 0.918347
635.10 0.9182086
635.20 0.9180702
635.30 0.9179319
635.40 0.9177936
635.50 0.9176554
635.60 0.9175172
635.70 0.9173791
635.80 0.917241
635.90 0.9171028
636.00 0.9169648
636.10 0.9168268
636.20 0.9166889
636.30 0.916551
636.40 0.9164132
636.50 0.9162753
636.60 0.9161375
636.70 0.9159998
636.80 0.9158619
636.90 0.9157242
637.00 0.9155866
637.10 0.915449
637.20 0.9153114
637.30 0.9151739
637.40 0.9150364
637.50 0.9148989
637.60 0.9147615
637.70 0.9146242
637.80 0.9144868
637.90 0.9143496
638.00 0.9142123
638.10 0.9140751
638.20 0.913938
638.30 0.9138008
638.40 0.9136637
638.50 0.9135267
638.60 0.9133897
638.70 0.9132527
638.80 0.9131158
638.90 0.912979
639.00 0.9128421
639.10 0.9127053
639.20 0.9125686
639.30 0.9124318
639.40 0.9122952
639.50 0.9121585
639.60 0.9120219
639.70 0.9118841
639.80 0.9117418
639.90 0.9115996
640.00 0.9114576
640.10 0.9113155
640.20 0.9111735
640.30 0.9110315
640.40 0.9108896
640.50 0.9107477
640.60 0.9106059
640.70 0.910464
640.80 0.9103223
640.90 0.9101806
641.00 0.910039
641.10 0.9098973
641.20 0.9097558
641.30 0.9096142
641.40 0.9094727
641.50 0.9093312
641.60 0.9091899
641.70 0.9090485
641.80 0.9089072
641.90 0.908766
642.00 0.9086247
642.10 0.9084836
642.20 0.9083424
642.30 0.9082013
642.40 0.9080602
642.50 0.9079192
642.60 0.9077782
642.70 0.9076373
642.80 0.9074965
642.90 0.9073546
643.00 0.9072097
643.10 0.9070649
643.20 0.9069201
643.30 0.9067753
643.40 0.9066306
643.50 0.9064859
643.60 0.9063412
643.70 0.9061967
643.80 0.9060522
643.90 0.9059077
644.00 0.9057632
644.10 0.9056189
644.20 0.9054745
644.30 0.9053302
644.40 0.9051859
644.50 0.9050418
644.60 0.9048976
644.70 0.9047534
644.80 0.9046093
644.90 0.9044654
645.00 0.9043214
645.10 0.9041774
645.20 0.9040335
645.30 0.9038897
645.40 0.9037459
645.50 0.9036021
645.60 0.9034585
645.70 0.9033148
645.80 0.9031711
645.90 0.9030275
646.00 0.902884
646.10 0.9027402
646.20 0.9025954
646.30 0.9024506
646.40 0.902306
646.50 0.9021614
646.60 0.9020167
646.70 0.9018722
646.80 0.9017276
646.90 0.9015833
647.00 0.9014388
647.10 0.9012944
647.20 0.9011501
647.30 0.9010059
647.40 0.9008617
647.50 0.9007174
647.60 0.9005733
647.70 0.9004293
647.80 0.9002852
647.90 0.9001412
648.00 0.8999972
648.10 0.8998534
648.20 0.8997095
648.30 0.8995656
648.40 0.8994219
648.50 0.8992782
648.60 0.8991345
648.70 0.8989908
648.80 0.8988473
648.90 0.8987037
649.00 0.8985602
649.10 0.8984168
649.20 0.8982734
649.30 0.89813
649.40 0.8979867
649.50 0.8978434
649.60 0.8977001
649.70 0.897557
649.80 0.8974138
649.90 0.8972707
650.00 0.8971276
650.10 0.8969845
650.20 0.8968416
650.30 0.8966986
650.40 0.8965557
650.50 0.8964129
650.60 0.8962701
650.70 0.8961274
650.80 0.8959846
650.90 0.8958419
651.00 0.8956993
651.10 0.8955567
651.20 0.8954142
651.30 0.8952717
651.40 0.8951292
651.50 0.8949869
651.60 0.8948445
651.70 0.8947023
651.80 0.89456
651.90 0.8944178
652.00 0.8942756
652.10 0.8941335
652.20 0.8939914
652.30 0.8938493
652.40 0.8937074
652.50 0.8935654
652.60 0.89342
652.70 0.8932728
652.80 0.8931255
652.90 0.8929783
653.00 0.8928312
653.10 0.8926841
653.20 0.8925371
653.30 0.8923902
653.40 0.8922432
653.50 0.8920964
653.60 0.8919495
653.70 0.8918028
653.80 0.891656
653.90 0.8915093
654.00 0.8913627
654.10 0.8912161
654.20 0.8910696
654.30 0.8909231
654.40 0.8907766
654.50 0.8906302
654.60 0.8904839
654.70 0.8903376
654.80 0.8901913
654.90 0.8900451
655.00 0.889899
655.10 0.8897528
655.20 0.8896068
655.30 0.8894609
655.40 0.8893149
655.50 0.889169
655.60 0.8890231
655.70 0.8888772
655.80 0.8887277
655.90 0.8885782
656.00 0.8884288
656.10 0.8882794
656.20 0.88813
656.30 0.8879807
656.40 0.8878315
656.50 0.8876823
656.60 0.8875331
656.70 0.887384
656.80 0.887235
656.90 0.887086
657.00 0.886937
657.10 0.8867881
657.20 0.8866393
657.30 0.8864905
657.40 0.8863417
657.50 0.886193
657.60 0.8860444
657.70 0.8858958
657.80 0.8858476
657.90 0.8857068
658.00 0.8855499
658.10 0.885393
658.20 0.8852362
658.30 0.8850795
658.40 0.8849228
658.50 0.8847661
658.60 0.8846095
658.70 0.8844529
658.80 0.8842965
658.90 0.88414
659.00 0.8839836
659.10 0.8838549
659.20 0.8837676
659.30 0.883613
659.40 0.8834585
659.50 0.8833041
659.60 0.8831497
659.70 0.8829953
659.80 0.882841
659.90 0.8826868
660.00 0.8825326
660.10 0.8823784
660.20 0.8822243
660.30 0.8820703
660.40 0.8819307
660.50 0.8817936
660.60 0.8816567
660.70 0.8815197
660.80 0.8813828
660.90 0.8812294
661.00 0.8810762
661.10 0.8809229
661.20 0.8807697
661.30 0.8806166
661.40 0.8804635
661.50 0.8803104
661.60 0.8801575
661.70 0.8800045
661.80 0.8798516
661.90 0.8797078
662.00 0.8795639
662.10 0.87942
662.20 0.8792763
662.30 0.8791325
662.40 0.8790107
662.50 0.8788707
662.60 0.8787308
662.70 0.8785908
662.80 0.878451
662.90 0.8783112
663.00 0.8781714
663.10 0.8779691
663.20 0.8778294
663.30 0.8776897
663.40 0.8774877
663.50 0.8773481
663.60 0.8772087
663.70 0.8770605
663.80 0.8769125
663.90 0.8767804
664.00 0.8766512
664.10 0.8764912
664.20 0.8763311
664.30 0.8761712
664.40 0.8760114
664.50 0.8758515
664.60 0.8756918
664.70 0.8755505
664.80 0.8754093
664.90 0.8752682
665.00 0.8751271
665.10 0.874986
665.20 0.874845
665.30 0.874704
665.40 0.874563
665.50 0.8743756
665.60 0.87418
665.70 0.8740973
665.80 0.8739485
665.90 0.8737996
666.00 0.8736509
666.10 0.8735022
666.20 0.8733536
666.30 0.8732049
666.40 0.8730564
666.50 0.8728992
666.60 0.8727405
666.70 0.8725818
666.80 0.8724232
666.90 0.8722646
667.00 0.8721062
667.10 0.8719738
667.20 0.871846
667.30 0.8716996
667.40 0.8715533
667.50 0.8714144
667.60 0.8712768
667.70 0.8710498
667.80 0.8709354
667.90 0.8707748
668.00 0.870622
668.10 0.8704661
668.20 0.8703288
668.30 0.8701916
668.40 0.8700543
668.50 0.8699172
668.60 0.86978
668.70 0.8695383
668.80 0.8693978
668.90 0.8692572
669.00 0.8691167
669.10 0.8689762
669.20 0.8688357
669.30 0.868688
669.40 0.868539
669.50 0.86839
669.60 0.8682411
669.70 0.8680921
669.80 0.8679433
669.90 0.8677946
670.00 0.8676459
670.10 0.8674972
670.20 0.8673485
670.30 0.8671921
670.40 0.8670344
670.50 0.8668767
670.60 0.8667191
670.70 0.8665615
670.80 0.8664128
670.90 0.8662641
671.00 0.8661155
671.10 0.865967
671.20 0.8658185
671.30 0.8656701
671.40 0.8655216
671.50 0.8653733
671.60 0.865225
671.70 0.8650767
671.80 0.8649286
671.90 0.8647717
672.00 0.8646133
672.10 0.8644551
672.20 0.8642969
672.30 0.8641388
672.40 0.8639901
672.50 0.8638421
672.60 0.8636941
672.70 0.8635463
672.80 0.8633985
672.90 0.8632508
673.00 0.8631031
673.10 0.8629554
673.20 0.8628078
673.30 0.862657
673.40 0.8625043
673.50 0.8623513
673.60 0.8621983
673.70 0.8620454
673.80 0.8618925
673.90 0.8617398
674.00 0.861587
674.10 0.8614342
674.20 0.8612817
674.30 0.861129
674.40 0.8609764
674.50 0.860824
674.60 0.8606715
674.70 0.8605192
674.80 0.8603668
674.90 0.8602145
675.00 0.8600623
675.10 0.8599101
675.20 0.859758
675.30 0.8596059
675.40 0.8594529
675.50 0.8592997
675.60 0.8591466
675.70 0.8589936
675.80 0.8588405
675.90 0.8586875
676.00 0.8585347
676.10 0.8583818
676.20 0.8582289
676.30 0.8580762
676.40 0.8579235
676.50 0.8577708
676.60 0.8576183
676.70 0.8574657
676.80 0.8573133
676.90 0.8571608
677.00 0.8570084
677.10 0.8568561
677.20 0.8567038
677.30 0.8565516
677.40 0.8563994
677.50 0.8562473
677.60 0.8560952
677.70 0.8559433
677.80 0.8557913
677.90 0.8556376
678.00 0.8554837
678.10 0.8553299
678.20 0.8551761
678.30 0.8550224
678.40 0.8548688
678.50 0.8547151
678.60 0.8545615
678.70 0.854408
678.80 0.8542546
678.90 0.8541012
679.00 0.8539478
679.10 0.8537935
679.20 0.8536387
679.30 0.8534839
679.40 0.8533292
679.50 0.8531745
679.60 0.8530199
679.70 0.8528655
679.80 0.852711
679.90 0.8525566
680.00 0.8524022
680.10 0.8522478
680.20 0.8520937
680.30 0.8519394
680.40 0.8517853
680.50 0.8516311
680.60 0.8514772
680.70 0.8513232
680.80 0.8511692
680.90 0.8510153
681.00 0.8508615
681.10 0.8507077
681.20 0.850554
681.30 0.8504003
681.40 0.8502467
681.50 0.8500932
681.60 0.8499396
681.70 0.8497862
681.80 0.8496328
681.90 0.8494794
682.00 0.8493262
682.10 0.8491729
682.20 0.8490197
682.30 0.8488666
682.40 0.8487135
682.50 0.8485605
682.60 0.8484076
682.70 0.8482546
682.80 0.8481017
682.90 0.847949
683.00 0.8477962
683.10 0.8476434
683.20 0.8474908
683.30 0.8473382
683.40 0.8471857
683.50 0.8470332
683.60 0.8468807
683.70 0.8467283
683.80 0.846576
683.90 0.8464237
684.00 0.8462715
684.10 0.8461192
684.20 0.8459672
684.30 0.8458151
684.40 0.8456631
684.50 0.8455111
684.60 0.8453592
684.70 0.8452073
684.80 0.8450556
684.90 0.8449038
685.00 0.8447521
685.10 0.8446004
685.20 0.8444489
685.30 0.8442973
685.40 0.8441458
685.50 0.8439943
685.60 0.843843
685.70 0.8436916
685.80 0.8435404
685.90 0.8433856
686.00 0.8432301
686.10 0.8430746
686.20 0.8429191
686.30 0.8427638
686.40 0.8426084
686.50 0.8424532
686.60 0.842298
686.70 0.8421429
686.80 0.8419877
686.90 0.8418327
687.00 0.8416777
687.10 0.8415227
687.20 0.8413678
687.30 0.8412131
687.40 0.8410583
687.50 0.8409036
687.60 0.8407489
687.70 0.8405942
687.80 0.8404397
687.90 0.8402853
688.00 0.8401308
688.10 0.8399764
688.20 0.839822
688.30 0.8396677
688.40 0.8395135
688.50 0.8393593
688.60 0.8392052
688.70 0.8390511
688.80 0.8388972
688.90 0.8387432
689.00 0.8385893
689.10 0.8384354
689.20 0.8382817
689.30 0.8381279
689.40 0.8379742
689.50 0.8378205
689.60 0.837667
689.70 0.8375134
689.80 0.8373599
689.90 0.8372066
690.00 0.8370532
690.10 0.8368998
690.20 0.8367466
690.30 0.8365934
690.40 0.8364402
690.50 0.8362872
690.60 0.8361341
690.70 0.8359811
690.80 0.8358282
690.90 0.8356753
691.00 0.8355224
691.10 0.8353697
691.20 0.8352169
691.30 0.8350642
691.40 0.8349117
691.50 0.8347591
691.60 0.8346066
691.70 0.8344541
691.80 0.8343017
691.90 0.8341494
692.00 0.833997
692.10 0.8338449
692.20 0.8336926
692.30 0.8335405
692.40 0.8333884
692.50 0.8332363
692.60 0.8330844
692.70 0.832932
692.80 0.8327782
692.90 0.8326244
693.00 0.8324706
693.10 0.8323168
693.20 0.8321632
693.30 0.8320096
693.40 0.831856
693.50 0.8317026
693.60 0.8315491
693.70 0.8313957
693.80 0.8312423
693.90 0.8310891
694.00 0.8309358
694.10 0.8307826
694.20 0.8306296
694.30 0.8304765
694.40 0.8303234
694.50 0.8301705
694.60 0.8300176
694.70 0.8298648
694.80 0.8297119
694.90 0.8295592
695.00 0.8294065
695.10 0.8292538
695.20 0.8291012
695.30 0.8289487
695.40 0.8287962
695.50 0.8286439
695.60 0.8284914
695.70 0.8283391
695.80 0.8281869
695.90 0.8280346
696.00 0.8278825
696.10 0.8277304
696.20 0.8275784
696.30 0.8274263
696.40 0.8272744
696.50 0.8271225
696.60 0.8269674
696.70 0.8268116
696.80 0.8266559
696.90 0.8265002
697.00 0.8263446
697.10 0.826189
697.20 0.8260336
697.30 0.8258782
697.40 0.8257228
697.50 0.8255674
697.60 0.8254121
697.70 0.8252569
697.80 0.8251017
697.90 0.8249466
698.00 0.8247916
698.10 0.8246366
698.20 0.8244816
698.30 0.8243267
698.40 0.8241718
698.50 0.824017
698.60 0.8238623
698.70 0.8237077
698.80 0.8235531
698.90 0.8233985
699.00 0.8232439
699.10 0.8230861
699.20 0.8229275
699.30 0.822769
699.40 0.8226104
699.50 0.822452
699.60 0.8222936
699.70 0.8221379
699.80 0.8219824
699.90 0.8218269
700.00 0.8216715
700.10 0.8215162
700.20 0.821361
700.30 0.8212058
700.40 0.8210506
700.50 0.8208954
700.60 0.8207404
700.70 0.8205853
700.80 0.8204304
700.90 0.8202756
701.00 0.8201207
701.10 0.8199622
701.20 0.8198029
701.30 0.8196438
701.40 0.8194846
701.50 0.8193255
701.60 0.8191664
701.70 0.8190075
701.80 0.8188486
701.90 0.8186897
702.00 0.8185309
702.10 0.8183721
702.20 0.8182135
702.30 0.8180548
702.40 0.8178962
702.50 0.8177377
702.60 0.8175811
702.70 0.817425
702.80 0.817269
702.90 0.817113
703.00 0.8169571
703.10 0.8168012
703.20 0.8166454
703.30 0.8164896
703.40 0.8163339
703.50 0.8161783
703.60 0.8160227
703.70 0.8158673
703.80 0.8157118
703.90 0.8155563
704.00 0.815401
704.10 0.8152456
704.20 0.8150915
704.30 0.8149376
704.40 0.814784
704.50 0.8146302
704.60 0.8144765
704.70 0.814323
704.80 0.8141695
704.90 0.8140159
705.00 0.8138625
705.10 0.8137092
705.20 0.8135528
705.30 0.8133959
705.40 0.813239
705.50 0.8130822
705.60 0.8129254
705.70 0.8127687
705.80 0.8126194
705.90 0.812472
706.00 0.8123246
706.10 0.8121773
706.20 0.8120077
706.30 0.8118329
706.40 0.8117238
706.50 0.8115229
706.60 0.8113745
706.70 0.8112551
706.80 0.8110701
706.90 0.8108957
707.00 0.8107436
707.10 0.8105968
707.20 0.8104501
707.30 0.8103034
707.40 0.8101495
707.50 0.8099937
707.60 0.809838
707.70 0.8096824
707.80 0.8095268
707.90 0.8093713
708.00 0.8092188
708.10 0.8090671
708.20 0.8089153
708.30 0.8087638
708.40 0.8086121
708.50 0.8084606
708.60 0.8083091
708.70 0.8081577
708.80 0.8080063
708.90 0.807855
709.00 0.8076971
709.10 0.8075377
709.20 0.8073783
709.30 0.8072191
709.40 0.8070598
709.50 0.8069006
709.60 0.8067415
709.70 0.8065825
709.80 0.8064234
709.90 0.8062645
710.00 0.8061056
710.10 0.8059468
710.20 0.8057879
710.30 0.8056292
710.40 0.8054706
710.50 0.805312
710.60 0.8051571
710.70 0.8050031
710.80 0.8048492
710.90 0.8046954
711.00 0.8045416
711.10 0.8043878
711.20 0.8042341
711.30 0.8040806
711.40 0.803927
711.50 0.8037734
711.60 0.80362
711.70 0.8034666
711.80 0.8033132
711.90 0.8031599
712.00 0.8030067
712.10 0.8028482
712.20 0.8026886
712.30 0.802529
712.40 0.8023695
712.50 0.80221
712.60 0.8020506
712.70 0.8018913
712.80 0.801732
712.90 0.8015728
713.00 0.8014136
713.10 0.8012546
713.20 0.8010954
713.30 0.8009365
713.40 0.8007776
713.50 0.8006187
713.60 0.8004598
713.70 0.8003098
713.80 0.8001776
713.90 0.8000455
714.00 0.7999133
714.10 0.7997593
714.20 0.7996
714.30 0.7994408
714.40 0.7992817
714.50 0.7991226
714.60 0.7989636
714.70 0.7988047
714.80 0.7986458
714.90 0.7984869
715.00 0.7983282
715.10 0.7981695
715.20 0.7980108
715.30 0.7978522
715.40 0.7976936
715.50 0.7975352
715.60 0.7973768
715.70 0.7972184
715.80 0.79706
715.90 0.7969018
716.00 0.7967436
716.10 0.7965855
716.20 0.7964274
716.30 0.7962694
716.40 0.7961114
716.50 0.7959535
716.60 0.7957972
716.70 0.7956414
716.80 0.7954857
716.90 0.79533
717.00 0.7951745
717.10 0.7950189
717.20 0.7948634
717.30 0.794708
717.40 0.7945526
717.50 0.7943972
717.60 0.7942419
717.70 0.7940867
717.80 0.7939315
717.90 0.7937765
718.00 0.7936214
718.10 0.7934664
718.20 0.7933101
718.30 0.7931532
718.40 0.7929964
718.50 0.7928396
718.60 0.7926829
718.70 0.7925262
718.80 0.7923696
718.90 0.7922131
719.00 0.7920566
719.10 0.7919001
719.20 0.7917437
719.30 0.7915874
719.40 0.7914311
719.50 0.7912749
719.60 0.7911187
719.70 0.7909626
719.80 0.7908066
719.90 0.7906506
720.00 0.7904946
720.10 0.7903387
720.20 0.7901829
720.30 0.7900271
720.40 0.7898714
720.50 0.7897157
720.60 0.7895601
720.70 0.789404
720.80 0.7892476
720.90 0.7890922
721.00 0.7889369
721.10 0.7887818
721.20 0.7886266
721.30 0.7884714
721.40 0.7883163
721.50 0.7881613
721.60 0.7880063
721.70 0.7878514
721.80 0.7876966
721.90 0.7875418
722.00 0.7873871
722.10 0.7872324
722.20 0.7870777
722.30 0.7869231
722.40 0.7867687
722.50 0.7866142
722.60 0.7864598
722.70 0.7863054
722.80 0.786151
722.90 0.7859967
723.00 0.7858424
723.10 0.7856882
723.20 0.785534
723.30 0.78538
723.40 0.7852259
723.50 0.7850719
723.60 0.7849179
723.70 0.784764
723.80 0.7846103
723.90 0.7844565
724.00 0.7843027
724.10 0.7841491
724.20 0.783993
724.30 0.7838354
724.40 0.783678
724.50 0.7835206
724.60 0.7833633
724.70 0.7832061
724.80 0.7830489
724.90 0.7828918
725.00 0.7827347
725.10 0.7825777
725.20 0.7824207
725.30 0.7822638
725.40 0.7821069
725.50 0.7819501
725.60 0.7817934
725.70 0.7816367
725.80 0.7814826
725.90 0.7813299
726.00 0.7811774
726.10 0.7810248
726.20 0.7808722
726.30 0.7807199
726.40 0.7805674
726.50 0.7804152
726.60 0.7802628
726.70 0.7801106
726.80 0.7799516
726.90 0.7797892
727.00 0.7796267
727.10 0.7794642
727.20 0.779302
727.30 0.7791396
727.40 0.7789774
727.50 0.7788153
727.60 0.7786531
727.70 0.7784911
727.80 0.7783629
727.90 0.7782528
728.00 0.7780754
728.10 0.7778681
728.20 0.7777518
728.30 0.7776419
728.40 0.7774621
728.50 0.7773005
728.60 0.7771389
728.70 0.7769775
728.80 0.776816
728.90 0.7766547
729.00 0.7764934
729.10 0.7763322
729.20 0.7761709
729.30 0.7760099
729.40 0.7758488
729.50 0.7756878
729.60 0.7755335
729.70 0.775383
729.80 0.7752325
729.90 0.775082
730.00 0.7749317
730.10 0.7747813
730.20 0.774631
730.30 0.7744807
730.40 0.7743306
730.50 0.7741805
730.60 0.7740278
730.70 0.7738739
730.80 0.7737202
730.90 0.7735664
731.00 0.7734126
731.10 0.7732589
731.20 0.7731054
731.30 0.7729518
731.40 0.7727983
731.50 0.7726449
731.60 0.7724915
731.70 0.7723381
731.80 0.7721849
731.90 0.7720316
732.00 0.7718784
732.10 0.7717254
732.20 0.7715703
732.30 0.7714143
732.40 0.7712584
732.50 0.7711025
732.60 0.7709467
732.70 0.7707909
732.80 0.7706352
732.90 0.7704795
733.00 0.7703239
733.10 0.7701683
733.20 0.7700128
733.30 0.7698574
733.40 0.7697021
733.50 0.7695467
733.60 0.7693915
733.70 0.7692329
733.80 0.7690725
733.90 0.7689123
734.00 0.7687521
734.10 0.768592
734.20 0.7684319
734.30 0.7682718
734.40 0.7681119
734.50 0.767952
734.60 0.7677921
734.70 0.7676323
734.80 0.7674726
734.90 0.7673129
735.00 0.7671533
735.10 0.7669937
735.20 0.7668342
735.30 0.7666756
735.40 0.7665265
735.50 0.7663773
735.60 0.7662282
735.70 0.7660751
735.80 0.7659197
735.90 0.7657644
736.00 0.7656091
736.10 0.7654539
736.20 0.7652987
736.30 0.7651436
736.40 0.7649886
736.50 0.7648337
736.60 0.7646787
736.70 0.7645238
736.80 0.764369
736.90 0.7642142
737.00 0.7640595
737.10 0.7639048
737.20 0.7637503
737.30 0.7635958
737.40 0.7634413
737.50 0.7632868
737.60 0.7631324
737.70 0.7629782
737.80 0.7628239
737.90 0.7626697
738.00 0.7625155
738.10 0.7623615
738.20 0.7622068
738.30 0.7620518
738.40 0.7618968
738.50 0.7617419
738.60 0.7615871
738.70 0.7614324
738.80 0.7612776
738.90 0.761123
739.00 0.7609684
739.10 0.7608138
739.20 0.7606593
739.30 0.7605049
739.40 0.7603505
739.50 0.7601962
739.60 0.7600419
739.70 0.7598878
739.80 0.7597336
739.90 0.7595794
740.00 0.7594254
740.10 0.7592714
740.20 0.7591175
740.30 0.7589636
740.40 0.7588097
740.50 0.7586561
740.60 0.7585023
740.70 0.7583486
740.80 0.758195
740.90 0.7580415
741.00 0.757888
741.10 0.7577345
741.20 0.7575812
741.30 0.7574279
741.40 0.7572746
741.50 0.7571213
741.60 0.7569682
741.70 0.7568151
741.80 0.7566621
741.90 0.7565091
742.00 0.7563561
742.10 0.7562033
742.20 0.7560504
742.30 0.7558976
742.40 0.7557449
742.50 0.7555922
742.60 0.7554396
742.70 0.7552856
742.80 0.7551304
742.90 0.7549753
743.00 0.7548202
743.10 0.7546652
743.20 0.7545102
743.30 0.7543554
743.40 0.7542005
743.50 0.7540457
743.60 0.753891
743.70 0.7537357
743.80 0.7535782
743.90 0.7534207
744.00 0.7532633
744.10 0.7531059
744.20 0.7529486
744.30 0.7527913
744.40 0.7526341
744.50 0.7524769
744.60 0.7523198
744.70 0.7521628
744.80 0.7520059
744.90 0.7518489
745.00 0.7516921
745.10 0.7515353
745.20 0.7513786
745.30 0.7512219
745.40 0.7510652
745.50 0.7509087
745.60 0.7507522
745.70 0.7505957
745.80 0.7504393
745.90 0.750283
746.00 0.7501267
746.10 0.7499704
746.20 0.7498143
746.30 0.7496581
746.40 0.7495021
746.50 0.7493461
746.60 0.7491901
746.70 0.7490342
746.80 0.7488784
746.90 0.7487226
747.00 0.7485669
747.10 0.7484112
747.20 0.7482556
747.30 0.7481001
747.40 0.7479446
747.50 0.7477892
747.60 0.7476338
747.70 0.7474785
747.80 0.7473232
747.90 0.7471679
748.00 0.7470128
748.10 0.7468577
748.20 0.7467027
748.30 0.7465477
748.40 0.7463928
748.50 0.7462379
748.60 0.746083
748.70 0.7459283
748.80 0.7457736
748.90 0.745619
749.00 0.7454643
749.10 0.7453098
749.20 0.7451553
749.30 0.7450009
749.40 0.7448465
749.50 0.7446922
749.60 0.7445379
749.70 0.7443837
749.80 0.7442296
749.90 0.7440755
750.00 0.7439215
750.10 0.7437674
750.20 0.7436136
750.30 0.7434596
750.40 0.7433058
750.50 0.7431519
750.60 0.7429983
750.70 0.7428446
750.80 0.7426909
750.90 0.7425373
751.00 0.7423839
751.10 0.7422304
751.20 0.7420769
751.30 0.7419236
751.40 0.7417703
751.50 0.7416171
751.60 0.7414639
751.70 0.7413108
751.80 0.7411577
751.90 0.7410047
752.00 0.7408517
752.10 0.7406988
752.20 0.740546
752.30 0.7403931
752.40 0.7402404
752.50 0.7400877
752.60 0.7399351
752.70 0.7397826
752.80 0.73963
752.90 0.7394775
753.00 0.7393251
753.10 0.7391727
753.20 0.7390205
753.30 0.7388682
753.40 0.7387161
753.50 0.7385639
753.60 0.7384118
753.70 0.7382598
753.80 0.7381078
753.90 0.7379539
754.00 0.7377994
754.10 0.737645
754.20 0.7374907
754.30 0.7373364
754.40 0.7371822
754.50 0.737028
754.60 0.7368739
754.70 0.7367198
754.80 0.7365659
754.90 0.7364119
755.00 0.736258
755.10 0.7361042
755.20 0.7359505
755.30 0.7357967
755.40 0.735643
755.50 0.7354894
755.60 0.7353359
755.70 0.7351824
755.80 0.7350289
755.90 0.7348756
756.00 0.7347222
756.10 0.7345689
756.20 0.7344158
756.30 0.7342626
756.40 0.7341094
756.50 0.7339564
756.60 0.7338034
756.70 0.7336504
756.80 0.7334976
756.90 0.7333447
757.00 0.7331919
757.10 0.7330393
757.20 0.7328866
757.30 0.732734
757.40 0.7325814
757.50 0.7324289
757.60 0.7322764
757.70 0.7321235
757.80 0.7319707
757.90 0.7318181
758.00 0.7316654
758.10 0.7315129
758.20 0.7313603
758.30 0.7312078
758.40 0.7310555
758.50 0.7309031
758.60 0.7307508
758.70 0.7305985
758.80 0.7304464
758.90 0.7302942
759.00 0.7301421
759.10 0.7299901
759.20 0.7298381
759.30 0.7296862
759.40 0.7295343
759.50 0.7293825
759.60 0.7292307
759.70 0.7290791
759.80 0.7289274
759.90 0.7287758
760.00 0.7286242
760.10 0.7284728
760.20 0.7283213
760.30 0.72817
760.40 0.7280186
760.50 0.7278674
760.60 0.7277161
760.70 0.727565
760.80 0.7274138
760.90 0.7272628
761.00 0.7271118
761.10 0.7269609
761.20 0.7268099
761.30 0.7266591
761.40 0.7265074
761.50 0.7263541
761.60 0.7262009
761.70 0.7260479
761.80 0.7258948
761.90 0.7257417
762.00 0.7255888
762.10 0.7254359
762.20 0.725283
762.30 0.7251303
762.40 0.7249775
762.50 0.7248248
762.60 0.7246723
762.70 0.7245196
762.80 0.7243672
762.90 0.7242147
763.00 0.7240623
763.10 0.72391
763.20 0.7237576
763.30 0.7236055
763.40 0.7234532
763.50 0.7233012
763.60 0.723149
763.70 0.722997
763.80 0.7228451
763.90 0.7226931
764.00 0.7225413
764.10 0.7223895
764.20 0.7222378
764.30 0.722086
764.40 0.7219345
764.50 0.7217828
764.60 0.7216313
764.70 0.7214798
764.80 0.7213285
764.90 0.721177
765.00 0.7210258
765.10 0.7208745
765.20 0.7207219
765.30 0.7205679
765.40 0.7204139
765.50 0.7202601
765.60 0.7201063
765.70 0.7199526
765.80 0.7197988
765.90 0.7196452
766.00 0.7194917
766.10 0.7193381
766.20 0.7191846
766.30 0.7190313
766.40 0.7188779
766.50 0.7187246
766.60 0.7185714
766.70 0.7184182
766.80 0.718265
766.90 0.718112
767.00 0.7179589
767.10 0.7178059
767.20 0.7176531
767.30 0.7175002
767.40 0.7173474
767.50 0.7171947
767.60 0.7170419
767.70 0.7168894
767.80 0.7167368
767.90 0.7165842
768.00 0.7164318
768.10 0.7162793
768.20 0.716127
768.30 0.7159747
768.40 0.7158224
768.50 0.7156702
768.60 0.7155181
768.70 0.715366
768.80 0.715214
768.90 0.715062
769.00 0.7149101
769.10 0.7147583
769.20 0.7146064
769.30 0.7144546
769.40 0.7143029
769.50 0.7141513
769.60 0.7139997
769.70 0.7138481
769.80 0.7136967
769.90 0.7135452
770.00 0.7133939
770.10 0.7132425
770.20 0.7130913
770.30 0.7129401
770.40 0.7127889
770.50 0.7126379
770.60 0.7124868
770.70 0.7123358
770.80 0.7121848
770.90 0.712034
771.00 0.7118831
771.10 0.7117324
771.20 0.7115817
771.30 0.711431
771.40 0.7112804
771.50 0.7111298
771.60 0.7109793
771.70 0.7108289
771.80 0.7106785
771.90 0.7105282
772.00 0.7103778
772.10 0.7102276
772.20 0.7100775
772.30 0.7099273
772.40 0.7097772
772.50 0.7096273
772.60 0.7094772
772.70 0.7093274
772.80 0.7091775
772.90 0.709025
773.00 0.7088725
773.10 0.7087201
773.20 0.7085677
773.30 0.7084155
773.40 0.7082632
773.50 0.708111
773.60 0.7079589
773.70 0.7078068
773.80 0.7076548
773.90 0.7075028
774.00 0.707351
774.10 0.7071991
774.20 0.7070473
774.30 0.7068955
774.40 0.7067439
774.50 0.7065922
774.60 0.7064407
774.70 0.7062891
774.80 0.7061377
774.90 0.7059862
775.00 0.7058349
775.10 0.7056835
775.20 0.7055323
775.30 0.705381
775.40 0.7052299
775.50 0.7050788
775.60 0.7049278
775.70 0.7047768
775.80 0.7046259
775.90 0.7044751
776.00 0.7043242
776.10 0.7041735
776.20 0.7040227
776.30 0.7038721
776.40 0.7037214
776.50 0.7035709
776.60 0.7034205
776.70 0.70327
776.80 0.7031196
776.90 0.7029692
777.00 0.702819
777.10 0.7026688
777.20 0.7025186
777.30 0.7023685
777.40 0.7022185
777.50 0.7020684
777.60 0.7019185
777.70 0.7017686
777.80 0.7016187
777.90 0.7014689
778.00 0.7013192
778.10 0.7011695
778.20 0.7010199
778.30 0.7008703
778.40 0.7007207
778.50 0.7005713
778.60 0.7004219
778.70 0.7002726
778.80 0.7001232
778.90 0.699974
779.00 0.6998248
779.10 0.6996757
779.20 0.6995265
779.30 0.6993775
779.40 0.6992285
779.50 0.6990796
779.60 0.6989307
779.70 0.6987819
779.80 0.6986331
779.90 0.6984844
780.00 0.6983357
780.10 0.6981871
780.20 0.6980385
780.30 0.6978901
780.40 0.6977416
780.50 0.6975931
780.60 0.6974423
780.70 0.6972904
780.80 0.6971386
780.90 0.6969868
781.00 0.6968351
781.10 0.6966835
781.20 0.6965319
781.30 0.6963803
781.40 0.6962289
781.50 0.6960774
781.60 0.6959261
781.70 0.6957747
781.80 0.6956235
781.90 0.6954723
782.00 0.6953212
782.10 0.6951701
782.20 0.695019
782.30 0.6948681
782.40 0.6947171
782.50 0.6945662
782.60 0.6944154
782.70 0.6942646
782.80 0.694114
782.90 0.6939632
783.00 0.6938127
783.10 0.6936621
783.20 0.6935116
783.30 0.6933611
783.40 0.6932107
783.50 0.6930604
783.60 0.6929101
783.70 0.6927599
783.80 0.6926098
783.90 0.6924596
784.00 0.6923096
784.10 0.6921596
784.20 0.6920096
784.30 0.6918597
784.40 0.6917099
784.50 0.69156
784.60 0.6914109
784.70 0.6912632
784.80 0.6911155
784.90 0.6909679
785.00 0.6908204
785.10 0.6906728
785.20 0.6905253
785.30 0.6903779
785.40 0.6902306
785.50 0.6900833
785.60 0.689936
785.70 0.6897888
785.80 0.6896417
785.90 0.6894946
786.00 0.6893476
786.10 0.6892006
786.20 0.6890537
786.30 0.6889068
786.40 0.68876
786.50 0.6886132
786.60 0.6884665
786.70 0.6883198
786.80 0.6881732
786.90 0.6880266
787.00 0.6878801
787.10 0.6877337
787.20 0.6875872
787.30 0.6874409
787.40 0.6872946
787.50 0.6871483
787.60 0.6870021
787.70 0.686856
787.80 0.6867099
787.90 0.6865638
788.00 0.6864178
788.10 0.6862719
788.20 0.686126
788.30 0.6859801
788.40 0.685832
788.50 0.6856828
788.60 0.6855336
788.70 0.6853844
788.80 0.6852353
788.90 0.6850863
789.00 0.6849373
789.10 0.6847883
789.20 0.6846394
789.30 0.6844906
789.40 0.6843419
789.50 0.6841932
789.60 0.6840444
789.70 0.6838958
789.80 0.6837473
789.90 0.6835988
790.00 0.6834504
790.10 0.6833019
790.20 0.6831536
790.30 0.6830053
790.40 0.6828571
790.50 0.6827089
790.60 0.6825608
790.70 0.6824126
790.80 0.6822646
790.90 0.6821166
791.00 0.6819687
791.10 0.6818208
791.20 0.681673
791.30 0.6815253
791.40 0.6813776
791.50 0.6812298
791.60 0.6810822
791.70 0.6809347
791.80 0.6807872
791.90 0.6806398
792.00 0.6804924
792.10 0.680345
792.20 0.6801978
792.30 0.68005
792.40 0.6799005
792.50 0.6797512
792.60 0.6796019
792.70 0.6794527
792.80 0.6793034
792.90 0.6791543
793.00 0.6790053
793.10 0.6788563
793.20 0.6787072
793.30 0.6785583
793.40 0.6784095
793.50 0.6782607
793.60 0.6781119
793.70 0.6779632
793.80 0.6778146
793.90 0.677666
794.00 0.6775175
794.10 0.6773689
794.20 0.6772205
794.30 0.6770721
794.40 0.6769238
794.50 0.6767755
794.60 0.6766273
794.70 0.6764791
794.80 0.676331
794.90 0.6761829
795.00 0.6760349
795.10 0.675887
795.20 0.6757391
795.30 0.6755912
795.40 0.6754433
795.50 0.6752956
795.60 0.6751479
795.70 0.6750003
795.80 0.6748527
795.90 0.6747052
796.00 0.6745577
796.10 0.6744103
796.20 0.6742629
796.30 0.6741144
796.40 0.6739658
796.50 0.6738173
796.60 0.6736689
796.70 0.6735205
796.80 0.6733721
796.90 0.6732237
797.00 0.6730755
797.10 0.6729273
797.20 0.6727792
797.30 0.6726311
797.40 0.672483
797.50 0.6723349
797.60 0.672187
797.70 0.6720391
797.80 0.6718913
797.90 0.6717435
798.00 0.6715958
798.10 0.6714482
798.20 0.6713005
798.30 0.6711529
798.40 0.6710054
798.50 0.6708579
798.60 0.6707105
798.70 0.6705631
798.80 0.6704158
798.90 0.6702686
799.00 0.6701214
799.10 0.6699743
799.20 0.6698272
799.30 0.6696801
799.40 0.6695331
799.50 0.6693862
799.60 0.6692393
799.70 0.6690925
799.80 0.6689457
799.90 0.668799
800.00 0.6686523
800.10 0.6685057
800.20 0.6683591
800.30 0.6682126
800.40 0.6680661
800.50 0.6679197
800.60 0.6677733
800.70 0.667627
800.80 0.6674807
800.90 0.6673345
801.00 0.6671884
801.10 0.6670423
801.20 0.6668962
801.30 0.6667502
801.40 0.6666043
801.50 0.6664584
801.60 0.6663125
801.70 0.6661667
801.80 0.666021
801.90 0.6658754
802.00 0.6657297
802.10 0.6655841
802.20 0.6654386
802.30 0.6652931
802.40 0.6651477
802.50 0.6650023
802.60 0.6648569
802.70 0.6647118
802.80 0.6645665
802.90 0.6644213
803.00 0.6642762
803.10 0.6641311
803.20 0.6639861
803.30 0.6638411
803.40 0.6636963
803.50 0.6635514
803.60 0.6634066
803.70 0.6632618
803.80 0.6631171
803.90 0.6629725
804.00 0.6628279
804.10 0.6626833
804.20 0.6625385
804.30 0.6623928
804.40 0.6622472
804.50 0.6621016
804.60 0.6619561
804.70 0.6618106
804.80 0.6616651
804.90 0.6615197
805.00 0.6613744
805.10 0.6612291
805.20 0.6610838
805.30 0.6609387
805.40 0.6607936
805.50 0.6606485
805.60 0.6605034
805.70 0.6603584
805.80 0.6602135
805.90 0.6600686
806.00 0.6599238
806.10 0.659779
806.20 0.6596343
806.30 0.6594896
806.40 0.659345
806.50 0.6592005
806.60 0.6590559
806.70 0.6589115
806.80 0.658767
806.90 0.6586227
807.00 0.6584784
807.10 0.6583341
807.20 0.6581899
807.30 0.6580458
807.40 0.6579017
807.50 0.6577576
807.60 0.6576136
807.70 0.6574697
807.80 0.6573258
807.90 0.6571819
808.00 0.6570381
808.10 0.6568944
808.20 0.6567506
808.30 0.656607
808.40 0.6564634
808.50 0.6563199
808.60 0.6561763
808.70 0.656033
808.80 0.6558895
808.90 0.6557462
809.00 0.6556029
809.10 0.6554597
809.20 0.6553165
809.30 0.6551734
809.40 0.6550303
809.50 0.6548872
809.60 0.6547443
809.70 0.6546013
809.80 0.6544585
809.90 0.6543156
810.00 0.6541728
810.10 0.6540301
810.20 0.6538874
810.30 0.6537448
810.40 0.6536022
810.50 0.6534596
810.60 0.6533172
810.70 0.6531747
810.80 0.6530324
810.90 0.65289
811.00 0.6527478
811.10 0.6526055
811.20 0.6524633
811.30 0.6523212
811.40 0.6521791
811.50 0.6520371
811.60 0.6518951
811.70 0.6517532
811.80 0.6516113
811.90 0.6514695
812.00 0.6513277
812.10 0.651186
812.20 0.6510443
812.30 0.6509002
812.40 0.6507554
812.50 0.6506106
812.60 0.6504659
812.70 0.6503212
812.80 0.6501766
812.90 0.6500322
813.00 0.6498877
813.10 0.6497432
813.20 0.6495988
813.30 0.6494545
813.40 0.6493102
813.50 0.649166
813.60 0.6490218
813.70 0.6488777
813.80 0.6487336
813.90 0.6485896
814.00 0.6484456
814.10 0.6483017
814.20 0.6481578
814.30 0.648014
814.40 0.6478703
814.50 0.6477265
814.60 0.6475828
814.70 0.6474392
814.80 0.6472957
814.90 0.6471521
815.00 0.6470086
815.10 0.6468653
815.20 0.6467219
815.30 0.6465785
815.40 0.6464354
815.50 0.6462921
815.60 0.6461489
815.70 0.6460059
815.80 0.6458628
815.90 0.6457198
816.00 0.6455768
816.10 0.6454339
816.20 0.6452911
816.30 0.6451483
816.40 0.6450055
816.50 0.6448628
816.60 0.6447201
816.70 0.6445776
816.80 0.644435
816.90 0.6442926
817.00 0.6441501
817.10 0.6440076
817.20 0.6438653
817.30 0.643723
817.40 0.6435808
817.50 0.6434386
817.60 0.6432965
817.70 0.6431543
817.80 0.6430123
817.90 0.6428703
818.00 0.6427283
818.10 0.6425864
818.20 0.6424445
818.30 0.6423028
818.40 0.642161
818.50 0.6420194
818.60 0.6418777
818.70 0.6417361
818.80 0.6415945
818.90 0.6414531
819.00 0.6413117
819.10 0.6411702
819.20 0.6410289
819.30 0.6408843
819.40 0.6407375
819.50 0.6405908
819.60 0.6404441
819.70 0.6402974
819.80 0.6401509
819.90 0.6400043
820.00 0.6398579
820.10 0.6397106
820.20 0.6395861
820.30 0.6394656
820.40 0.6393317
820.50 0.6391884
820.60 0.6390451
820.70 0.6389018
820.80 0.6387586
820.90 0.6386155
821.00 0.6384723
821.10 0.6383292
821.20 0.6381863
821.30 0.6380433
821.40 0.6379005
821.50 0.6377576
821.60 0.6376147
821.70 0.637472
821.80 0.6373293
821.90 0.6371867
822.00 0.6370441
822.10 0.6369015
822.20 0.636759
822.30 0.6366165
822.40 0.6364742
822.50 0.6363318
822.60 0.6361896
822.70 0.6360473
822.80 0.635905
822.90 0.6357629
823.00 0.6356208
823.10 0.6354788
823.20 0.6353368
823.30 0.6351949
823.40 0.6350529
823.50 0.6349111
823.60 0.6347693
823.70 0.6346276
823.80 0.6344859
823.90 0.6343443
824.00 0.6342026
824.10 0.6340611
824.20 0.6339196
824.30 0.6337782
824.40 0.6336367
824.50 0.6334954
824.60 0.6333541
824.70 0.6332129
824.80 0.6330717
824.90 0.6329305
825.00 0.6327895
825.10 0.6326484
825.20 0.6325074
825.30 0.6323664
825.40 0.6322256
825.50 0.6320848
825.60 0.6319439
825.70 0.6318032
825.80 0.6316624
825.90 0.6315218
826.00 0.6313813
826.10 0.6312407
826.20 0.6311002
826.30 0.6309586
826.40 0.6308165
826.50 0.6306742
826.60 0.6305322
826.70 0.6303901
826.80 0.6302481
826.90 0.6301061
827.00 0.6299643
827.10 0.6298223
827.20 0.6296806
827.30 0.6295388
827.40 0.6293971
827.50 0.6292554
827.60 0.6291138
827.70 0.6289722
827.80 0.6288308
827.90 0.6286893
828.00 0.6285479
828.10 0.6284065
828.20 0.6282652
828.30 0.6281239
828.40 0.6279827
828.50 0.6278415
828.60 0.6277006
828.70 0.6275598
828.80 0.6274189
828.90 0.6272782
829.00 0.6271375
829.10 0.6269968
829.20 0.6268563
829.30 0.6267157
829.40 0.6265752
829.50 0.6264348
829.60 0.6262943
829.70 0.626154
829.80 0.6260138
829.90 0.6258734
830.00 0.6257333
830.10 0.6255931
830.20 0.625453
830.30 0.625313
830.40 0.6251729
830.50 0.625033
830.60 0.6248931
830.70 0.6247533
830.80 0.6246134
830.90 0.6244737
831.00 0.624334
831.10 0.6241943
831.20 0.6240547
831.30 0.6239151
831.40 0.6237757
831.50 0.6236361
831.60 0.6234967
831.70 0.6233574
831.80 0.623218
831.90 0.6230788
832.00 0.6229396
832.10 0.6228004
832.20 0.6226613
832.30 0.6225222
832.40 0.6223832
832.50 0.6222442
832.60 0.6221053
832.70 0.6219664
832.80 0.6218276
832.90 0.6216888
833.00 0.6215501
833.10 0.6214114
833.20 0.6212727
833.30 0.6211341
833.40 0.6209956
833.50 0.6208572
833.60 0.6207187
833.70 0.6205804
833.80 0.6204419
833.90 0.6203037
834.00 0.6201654
834.10 0.6200272
834.20 0.6198891
834.30 0.619751
834.40 0.619613
834.50 0.619475
834.60 0.619337
834.70 0.6191991
834.80 0.6190612
834.90 0.6189234
835.00 0.6187857
835.10 0.618648
835.20 0.6185103
835.30 0.6183727
835.40 0.6182351
835.50 0.6180976
835.60 0.6179602
835.70 0.6178227
835.80 0.6176853
835.90 0.6175479
836.00 0.6174107
836.10 0.6172734
836.20 0.6171363
836.30 0.6169991
836.40 0.616862
836.50 0.616725
836.60 0.616588
836.70 0.6164511
836.80 0.6163142
836.90 0.6161766
837.00 0.6160388
837.10 0.615901
837.20 0.6157633
837.30 0.6156256
837.40 0.6154879
837.50 0.6153504
837.60 0.6152128
837.70 0.6150752
837.80 0.6149378
837.90 0.6148004
838.00 0.614663
838.10 0.6145257
838.20 0.6143884
838.30 0.6142512
838.40 0.6141141
838.50 0.6139769
838.60 0.6138399
838.70 0.6137028
838.80 0.6135659
838.90 0.6134289
839.00 0.6132921
839.10 0.6131552
839.20 0.6130184
839.30 0.6128817
839.40 0.612745
839.50 0.6126084
839.60 0.6124718
839.70 0.6123352
839.80 0.6121987
839.90 0.6120623
840.00 0.6119259
840.10 0.6117895
840.20 0.6116532
840.30 0.6115169
840.40 0.6113807
840.50 0.6112446
840.60 0.6111085
840.70 0.6109724
840.80 0.6108364
840.90 0.6107004
841.00 0.6105645
841.10 0.610427
841.20 0.6102893
841.30 0.6101517
841.40 0.6100141
841.50 0.6098766
841.60 0.6097391
841.70 0.6096015
841.80 0.6094641
841.90 0.6093268
842.00 0.6091895
842.10 0.6090522
842.20 0.608915
842.30 0.6087778
842.40 0.6086407
842.50 0.6085037
842.60 0.6083666
842.70 0.6082297
842.80 0.6080927
842.90 0.6079559
843.00 0.607819
843.10 0.6076823
843.20 0.6075455
843.30 0.6074088
843.40 0.6072722
843.50 0.6071356
843.60 0.6069991
843.70 0.6068626
843.80 0.6067261
843.90 0.6065897
844.00 0.6064534
844.10 0.606317
844.20 0.6061808
844.30 0.6060447
844.40 0.6059085
844.50 0.6057724
844.60 0.6056363
844.70 0.6055003
844.80 0.6053643
844.90 0.6052284
845.00 0.6050925
845.10 0.6049566
845.20 0.6048208
845.30 0.6046832
845.40 0.6045456
845.50 0.6044081
845.60 0.6042706
845.70 0.6041332
845.80 0.6039958
845.90 0.6038585
846.00 0.6037212
846.10 0.603584
846.20 0.6034468
846.30 0.6033096
846.40 0.6031725
846.50 0.6030355
846.60 0.6028985
846.70 0.6027615
846.80 0.6026246
846.90 0.6024878
847.00 0.602351
847.10 0.6022142
847.20 0.6020775
847.30 0.6019408
847.40 0.6018042
847.50 0.6016676
847.60 0.6015311
847.70 0.6013946
847.80 0.6012582
847.90 0.6011218
848.00 0.6009854
848.10 0.6008491
848.20 0.6007129
848.30 0.6005767
848.40 0.6004405
848.50 0.6003044
848.60 0.6001684
848.70 0.6000324
848.80 0.5998965
848.90 0.5997606
849.00 0.5996247
849.10 0.5994889
849.20 0.5993531
849.30 0.5992174
849.40 0.5990817
849.50 0.5989461
849.60 0.5988105
849.70 0.598675
849.80 0.5985395
849.90 0.5984041
850.00 0.5982687
850.10 0.5981333
850.20 0.597998
850.30 0.5978629
850.40 0.5977276
850.50 0.5975925
850.60 0.5974573
850.70 0.5973223
850.80 0.5971872
850.90 0.5970524
851.00 0.5969174
851.10 0.5967825
851.20 0.5966477
851.30 0.5965129
851.40 0.5963782
851.50 0.5962435
851.60 0.5961089
851.70 0.5959743
851.80 0.5958398
851.90 0.5957053
852.00 0.5955708
852.10 0.5954364
852.20 0.5953021
852.30 0.5951678
852.40 0.5950335
852.50 0.5948992
852.60 0.5947651
852.70 0.594631
852.80 0.5944969
852.90 0.5943628
853.00 0.5942289
853.10 0.5940949
853.20 0.593961
853.30 0.5938272
853.40 0.5936934
853.50 0.5935596
853.60 0.593426
853.70 0.5932923
853.80 0.5931586
853.90 0.593025
854.00 0.5928914
854.10 0.5927579
854.20 0.5926245
854.30 0.592491
854.40 0.5923576
854.50 0.5922243
854.60 0.592091
854.70 0.5919577
854.80 0.5918245
854.90 0.5916913
855.00 0.5915583
855.10 0.5914252
855.20 0.5912921
855.30 0.5911592
855.40 0.5910263
855.50 0.5908934
855.60 0.5907606
855.70 0.5906277
855.80 0.5904951
855.90 0.5903623
856.00 0.5902297
856.10 0.5900971
856.20 0.5899645
856.30 0.589832
856.40 0.5896995
856.50 0.5895671
856.60 0.5894347
856.70 0.5893024
856.80 0.5891701
856.90 0.5890379
857.00 0.5889057
857.10 0.5887736
857.20 0.5886414
857.30 0.5885094
857.40 0.5883774
857.50 0.5882455
857.60 0.5881135
857.70 0.5879817
857.80 0.5878498
857.90 0.5877181
858.00 0.5875849
858.10 0.5874514
858.20 0.5873181
858.30 0.5871847
858.40 0.5870514
858.50 0.5869182
858.60 0.5867849
858.70 0.5866518
858.80 0.5865187
858.90 0.5863855
859.00 0.5862526
859.10 0.5861196
859.20 0.5859867
859.30 0.5858538
859.40 0.5857209
859.50 0.5855881
859.60 0.5854554
859.70 0.5853227
859.80 0.58519
859.90 0.5850573
860.00 0.5849248
860.10 0.5847923
860.20 0.5846599
860.30 0.5845274
860.40 0.584395
860.50 0.5842627
860.60 0.5841304
860.70 0.5839981
860.80 0.583866
860.90 0.5837338
861.00 0.5836017
861.10 0.5834696
861.20 0.5833376
861.30 0.5832056
861.40 0.5830737
861.50 0.5829418
861.60 0.58281
861.70 0.5826782
861.80 0.5825465
861.90 0.5824147
862.00 0.5822831
862.10 0.5821515
862.20 0.5820197
862.30 0.5818864
862.40 0.5817532
862.50 0.5816201
862.60 0.5814869
862.70 0.5813539
862.80 0.5812208
862.90 0.5810878
863.00 0.5809549
863.10 0.5808219
863.20 0.5806891
863.30 0.5805563
863.40 0.5804235
863.50 0.5802908
863.60 0.5801581
863.70 0.5800256
863.80 0.5798929
863.90 0.5797605
864.00 0.5796279
864.10 0.5794954
864.20 0.5793631
864.30 0.5792307
864.40 0.5790985
864.50 0.5789661
864.60 0.578834
864.70 0.5787018
864.80 0.5785697
864.90 0.5784376
865.00 0.5783056
865.10 0.5781736
865.20 0.5780417
865.30 0.5779097
865.40 0.5777779
865.50 0.5776461
865.60 0.5775144
865.70 0.5773826
865.80 0.577251
865.90 0.5771193
866.00 0.5769878
866.10 0.5768562
866.20 0.5767248
866.30 0.5765934
866.40 0.5764619
866.50 0.5763306
866.60 0.5761993
866.70 0.576068
866.80 0.5759368
866.90 0.5758057
867.00 0.5756746
867.10 0.5755434
867.20 0.5754124
867.30 0.5752814
867.40 0.5751505
867.50 0.5750196
867.60 0.5748887
867.70 0.574758
867.80 0.5746271
867.90 0.5744965
868.00 0.5743658
868.10 0.5742351
868.20 0.5741046
868.30 0.5739741
868.40 0.5738435
868.50 0.5737131
868.60 0.5735828
868.70 0.5734523
868.80 0.5733221
868.90 0.5731918
869.00 0.5730615
869.10 0.5729314
869.20 0.5728013
869.30 0.5726711
869.40 0.5725411
869.50 0.5724111
869.60 0.5722811
869.70 0.5721512
869.80 0.5720214
869.90 0.5718916
870.00 0.5717618
870.10 0.5716321
870.20 0.5715024
870.30 0.5713727
870.40 0.5712431
870.50 0.5711136
870.60 0.5709841
870.70 0.5708546
870.80 0.5707252
870.90 0.5705958
871.00 0.5704665
871.10 0.5703371
871.20 0.5702078
871.30 0.5700787
871.40 0.5699495
871.50 0.5698204
871.60 0.5696912
871.70 0.5695622
871.80 0.5694332
871.90 0.5693043
872.00 0.5691754
872.10 0.5690465
872.20 0.5689177
872.30 0.5687889
872.40 0.5686602
872.50 0.5685316
872.60 0.5684029
872.70 0.5682742
872.80 0.5681457
872.90 0.5680172
873.00 0.5678888
873.10 0.5677604
873.20 0.567632
873.30 0.5675037
873.40 0.5673753
873.50 0.5672471
873.60 0.5671189
873.70 0.5669907
873.80 0.5668626
873.90 0.5667346
874.00 0.5666066
874.10 0.5664786
874.20 0.5663506
874.30 0.5662228
874.40 0.5660948
874.50 0.565967
874.60 0.5658393
874.70 0.5657115
874.80 0.5655839
874.90 0.5654563
875.00 0.5653287
875.10 0.5652011
875.20 0.565073
875.30 0.564944
875.40 0.5648149
875.50 0.5646858
875.60 0.5645569
875.70 0.5644279
875.80 0.5642991
875.90 0.5641702
876.00 0.5640414
876.10 0.5639126
876.20 0.5637839
876.30 0.5636553
876.40 0.5635267
876.50 0.5633981
876.60 0.5632695
876.70 0.563141
876.80 0.5630126
876.90 0.5628842
877.00 0.5627559
877.10 0.5626276
877.20 0.5624993
877.30 0.5623711
877.40 0.5622428
877.50 0.5621147
877.60 0.5619866
877.70 0.5618586
877.80 0.5617306
877.90 0.5616026
878.00 0.5614747
878.10 0.5613468
878.20 0.561219
878.30 0.5610912
878.40 0.5609635
878.50 0.5608357
878.60 0.560708
878.70 0.5605804
878.80 0.5604529
878.90 0.5603253
879.00 0.5601978
879.10 0.5600704
879.20 0.559943
879.30 0.5598157
879.40 0.5596884
879.50 0.5595611
879.60 0.5594326
879.70 0.5593038
879.80 0.559175
879.90 0.5590463
880.00 0.5589176
880.10 0.558789
880.20 0.5586604
880.30 0.5585319
880.40 0.5584035
880.50 0.5582749
880.60 0.5581465
880.70 0.5580182
880.80 0.5578899
880.90 0.5577616
881.00 0.5576334
881.10 0.5575053
881.20 0.5573771
881.30 0.557249
881.40 0.5571209
881.50 0.5569929
881.60 0.556865
881.70 0.556737
881.80 0.5566092
881.90 0.5564814
882.00 0.5563536
882.10 0.5562258
882.20 0.5560981
882.30 0.5559705
882.40 0.5558429
882.50 0.5557153
882.60 0.5555878
882.70 0.5554603
882.80 0.5553328
882.90 0.5552054
883.00 0.5550781
883.10 0.5549507
883.20 0.5548235
883.30 0.5546963
883.40 0.5545691
883.50 0.554442
883.60 0.5543149
883.70 0.5541878
883.80 0.5540608
883.90 0.5539339
884.00 0.5538069
884.10 0.5536801
884.20 0.5535532
884.30 0.5534264
884.40 0.5532997
884.50 0.5531731
884.60 0.5530464
884.70 0.5529198
884.80 0.5527932
884.90 0.5526667
885.00 0.5525402
885.10 0.5524137
885.20 0.5522873
885.30 0.552161
885.40 0.5520346
885.50 0.5519084
885.60 0.5517821
885.70 0.5516559
885.80 0.5515298
885.90 0.5514038
886.00 0.5512777
886.10 0.5511517
886.20 0.5510257
886.30 0.5508997
886.40 0.5507738
886.50 0.550648
886.60 0.5505222
886.70 0.5503964
886.80 0.5502708
886.90 0.5501451
887.00 0.5500195
887.10 0.5498938
887.20 0.5497683
887.30 0.5496428
887.40 0.5495174
887.50 0.549392
887.60 0.5492666
887.70 0.5491412
887.80 0.5490159
887.90 0.5488907
888.00 0.5487655
888.10 0.5486403
888.20 0.5485152
888.30 0.5483901
888.40 0.5482644
888.50 0.5481386
888.60 0.548013
888.70 0.5478873
888.80 0.5477617
888.90 0.5476361
889.00 0.5475105
889.10 0.547385
889.20 0.5472596
889.30 0.5471342
889.40 0.5470088
889.50 0.5468834
889.60 0.5467581
889.70 0.5466328
889.80 0.5465077
889.90 0.5463825
890.00 0.5462574
890.10 0.5461323
890.20 0.5460072
890.30 0.5458823
890.40 0.5457573
890.50 0.5456324
890.60 0.5455075
890.70 0.5453828
890.80 0.545258
890.90 0.5451332
891.00 0.5450085
891.10 0.5448838
891.20 0.5447593
891.30 0.5446347
891.40 0.5445101
891.50 0.5443857
891.60 0.5442612
891.70 0.5441368
891.80 0.5440124
891.90 0.5438882
892.00 0.5437639
892.10 0.5436396
892.20 0.5435154
892.30 0.5433913
892.40 0.5432672
892.50 0.5431431
892.60 0.5430191
892.70 0.5428951
892.80 0.5427711
892.90 0.5426473
893.00 0.5425234
893.10 0.5423995
893.20 0.5422758
893.30 0.5421521
893.40 0.5420284
893.50 0.5419048
893.60 0.5417811
893.70 0.5416575
893.80 0.5415341
893.90 0.5414106
894.00 0.5412872
894.10 0.5411637
894.20 0.5410403
894.30 0.5409171
894.40 0.5407938
894.50 0.5406705
894.60 0.5405474
894.70 0.5404242
894.80 0.5403012
894.90 0.540178
895.00 0.540055
895.10 0.5399321
895.20 0.5398091
895.30 0.5396862
895.40 0.5395633
895.50 0.5394406
895.60 0.5393178
895.70 0.539195
895.80 0.5390723
895.90 0.5389497
896.00 0.5388271
896.10 0.5387045
896.20 0.538582
896.30 0.5384595
896.40 0.5383371
896.50 0.5382146
896.60 0.5380923
896.70 0.53797
896.80 0.5378477
896.90 0.5377254
897.00 0.5376033
897.10 0.5374811
897.20 0.537359
897.30 0.5372361
897.40 0.5371134
897.50 0.5369907
897.60 0.5368679
897.70 0.5367453
897.80 0.5366227
897.90 0.5365002
898.00 0.5363776
898.10 0.5362552
898.20 0.5361327
898.30 0.5360103
898.40 0.5358879
898.50 0.5357657
898.60 0.5356433
898.70 0.5355212
898.80 0.5353989
898.90 0.5352768
899.00 0.5351547
899.10 0.5350326
899.20 0.5349106
899.30 0.5347886
899.40 0.5346666
899.50 0.5345448
899.60 0.5344228
899.70 0.5343011
899.80 0.5341792
899.90 0.5340575
900.00 0.5339358
900.10 0.5338142
900.20 0.5336926
900.30 0.5335709
900.40 0.5334495
900.50 0.5333279
900.60 0.5332065
900.70 0.533085
900.80 0.5329637
900.90 0.5328424
901.00 0.532721
901.10 0.5325998
901.20 0.5324786
901.30 0.5323574
901.40 0.5322363
901.50 0.5321152
901.60 0.5319942
901.70 0.5318728
901.80 0.5317504
901.90 0.5316279
902.00 0.5315056
902.10 0.5313832
902.20 0.5312609
902.30 0.5311386
902.40 0.5310164
902.50 0.5308942
902.60 0.5307721
902.70 0.5306499
902.80 0.5305279
902.90 0.5304059
903.00 0.5302839
903.10 0.5301619
903.20 0.5300401
903.30 0.5299182
903.40 0.5297964
903.50 0.5296747
903.60 0.5295529
903.70 0.5294312
903.80 0.5293095
903.90 0.5291879
904.00 0.5290663
904.10 0.5289448
904.20 0.5288233
904.30 0.5287019
904.40 0.5285805
904.50 0.5284591
904.60 0.5283378
904.70 0.5282164
904.80 0.5280952
904.90 0.5279741
905.00 0.5278529
905.10 0.5277318
905.20 0.5276106
905.30 0.5274896
905.40 0.5273687
905.50 0.5272476
905.60 0.5271267
905.70 0.5270058
905.80 0.526885
905.90 0.5267642
906.00 0.5266434
906.10 0.5265227
906.20 0.5264016
906.30 0.5262795
906.40 0.5261575
906.50 0.5260355
906.60 0.5259136
906.70 0.5257916
906.80 0.5256698
906.90 0.5255479
907.00 0.5254262
907.10 0.5253044
907.20 0.5251827
907.30 0.5250611
907.40 0.5249394
907.50 0.5248179
907.60 0.5246963
907.70 0.5245749
907.80 0.5244533
907.90 0.524332
908.00 0.5242105
908.10 0.5240892
908.20 0.523968
908.30 0.5238467
908.40 0.5237255
908.50 0.5236043
908.60 0.5234832
908.70 0.5233621
908.80 0.523241
908.90 0.52312
909.00 0.5229991
909.10 0.5228781
909.20 0.5227573
909.30 0.5226364
909.40 0.5225156
909.50 0.5223949
909.60 0.5222741
909.70 0.5221534
909.80 0.5220328
909.90 0.5219121
910.00 0.5217916
910.10 0.5216711
910.20 0.5215506
910.30 0.5214301
910.40 0.5213098
910.50 0.5211893
910.60 0.5210691
910.70 0.5209488
910.80 0.5208286
910.90 0.5207083
911.00 0.5205882
911.10 0.5204681
911.20 0.5203479
911.30 0.5202279
911.40 0.520108
911.50 0.519988
911.60 0.519868
911.70 0.5197482
911.80 0.5196284
911.90 0.5195085
912.00 0.5193888
912.10 0.5192691
912.20 0.5191494
912.30 0.5190297
912.40 0.5189101
912.50 0.5187906
912.60 0.5186711
912.70 0.5185516
912.80 0.5184321
912.90 0.5183127
913.00 0.5181934
913.10 0.5180741
913.20 0.5179547
913.30 0.5178355
913.40 0.5177163
913.50 0.5175972
913.60 0.5174781
913.70 0.517359
913.80 0.5172399
913.90 0.5171209
914.00 0.517002
914.10 0.516883
914.20 0.5167642
914.30 0.5166454
914.40 0.5165265
914.50 0.5164077
914.60 0.516289
914.70 0.5161703
914.80 0.5160517
914.90 0.5159331
915.00 0.5158146
915.10 0.5156959
915.20 0.5155775
915.30 0.5154591
915.40 0.5153407
915.50 0.5152224
915.60 0.5151042
915.70 0.5149859
915.80 0.5148677
915.90 0.5147496
916.00 0.5146315
916.10 0.5145133
916.20 0.5143953
916.30 0.5142773
916.40 0.5141594
916.50 0.5140414
916.60 0.5139236
916.70 0.5138057
916.80 0.5136879
916.90 0.5135702
917.00 0.5134525
917.10 0.5133348
917.20 0.5132171
917.30 0.5130995
917.40 0.512982
917.50 0.5128644
917.60 0.512747
917.70 0.5126295
917.80 0.5125121
917.90 0.5123947
918.00 0.5122774
918.10 0.5121601
918.20 0.5120428
918.30 0.5119256
918.40 0.5118085
918.50 0.5116913
918.60 0.5115742
918.70 0.5114571
918.80 0.5113401
918.90 0.5112231
919.00 0.5111062
919.10 0.5109893
919.20 0.5108724
919.30 0.5107556
919.40 0.5106388
919.50 0.510522
919.60 0.5104053
919.70 0.5102886
919.80 0.510172
919.90 0.5100541
920.00 0.5099361
920.10 0.5098182
920.20 0.5097003
920.30 0.5095824
920.40 0.5094646
920.50 0.5093468
920.60 0.5092291
920.70 0.5091114
920.80 0.5089937
920.90 0.5088761
921.00 0.5087585
921.10 0.508641
921.20 0.5085235
921.30 0.508406
921.40 0.5082886
921.50 0.5081712
921.60 0.5080538
921.70 0.5079365
921.80 0.5078193
921.90 0.507702
922.00 0.5075848
922.10 0.5074677
922.20 0.5073505
922.30 0.5072335
922.40 0.5071164
922.50 0.5069994
922.60 0.5068825
922.70 0.5067655
922.80 0.5066486
922.90 0.5065318
923.00 0.506415
923.10 0.5062982
923.20 0.5061815
923.30 0.5060648
923.40 0.5059481
923.50 0.5058315
923.60 0.5057149
923.70 0.5055984
923.80 0.5054819
923.90 0.5053655
924.00 0.5052491
924.10 0.5051327
924.20 0.5050163
924.30 0.5049
924.40 0.5047837
924.50 0.5046676
924.60 0.5045514
924.70 0.5044353
924.80 0.5043194
924.90 0.5042034
925.00 0.5040874
925.10 0.5039714
925.20 0.5038555
925.30 0.5037397
925.40 0.5036238
925.50 0.5035082
925.60 0.5033924
925.70 0.5032767
925.80 0.503161
925.90 0.5030454
926.00 0.5029298
926.10 0.5028143
926.20 0.5026988
926.30 0.5025833
926.40 0.5024678
926.50 0.5023524
926.60 0.5022372
926.70 0.5021218
926.80 0.5020065
926.90 0.5018913
927.00 0.501776
927.10 0.5016609
927.20 0.5015458
927.30 0.5014307
927.40 0.5013156
927.50 0.5012006
927.60 0.5010857
927.70 0.5009707
927.80 0.5008558
927.90 0.5007409
928.00 0.5006262
928.10 0.5005114
928.20 0.5003966
928.30 0.5002818
928.40 0.5001672
928.50 0.5000526
928.60 0.499938
928.70 0.4998235
928.80 0.4997089
928.90 0.4995944
929.00 0.4994799
929.10 0.4993643
929.20 0.4992485
929.30 0.4991328
929.40 0.4990171
929.50 0.4989015
929.60 0.4987859
929.70 0.4986704
929.80 0.4985548
929.90 0.4984393
930.00 0.4983239
930.10 0.4982085
930.20 0.4980932
930.30 0.4979778
930.40 0.4978625
930.50 0.4977472
930.60 0.497632
930.70 0.4975169
930.80 0.4974017
930.90 0.4972866
931.00 0.4971715
931.10 0.4970566
931.20 0.4969416
931.30 0.4968266
931.40 0.4967117
931.50 0.4965968
931.60 0.496482
931.70 0.4963672
931.80 0.4962524
931.90 0.4961378
932.00 0.4960231
932.10 0.4959084
932.20 0.4957938
932.30 0.4956793
932.40 0.4955647
932.50 0.4954502
932.60 0.4953357
932.70 0.4952213
932.80 0.4951069
932.90 0.4949926
933.00 0.4948783
933.10 0.494764
933.20 0.4946498
933.30 0.4945356
933.40 0.4944214
933.50 0.4943073
933.60 0.4941933
933.70 0.4940793
933.80 0.4939653
933.90 0.4938515
934.00 0.4937376
934.10 0.4936237
934.20 0.49351
934.30 0.4933963
934.40 0.4932825
934.50 0.4931689
934.60 0.4930553
934.70 0.4929417
934.80 0.4928282
934.90 0.4927146
935.00 0.4926012
935.10 0.4924877
935.20 0.4923743
935.30 0.492261
935.40 0.4921476
935.50 0.4920344
935.60 0.4919211
935.70 0.4918079
935.80 0.4916947
935.90 0.4915815
936.00 0.4914685
936.10 0.4913553
936.20 0.4912424
936.30 0.4911293
936.40 0.4910164
936.50 0.4909035
936.60 0.4907905
936.70 0.4906778
936.80 0.4905649
936.90 0.4904522
937.00 0.4903394
937.10 0.4902268
937.20 0.4901141
937.30 0.4900015
937.40 0.4898888
937.50 0.4897764
937.60 0.4896638
937.70 0.4895514
937.80 0.4894389
937.90 0.4893265
938.00 0.4892141
938.10 0.4891018
938.20 0.4889895
938.30 0.4888773
938.40 0.488765
938.50 0.4886529
938.60 0.4885407
938.70 0.4884286
938.80 0.4883165
938.90 0.4882045
939.00 0.4880925
939.10 0.4879805
939.20 0.4878687
939.30 0.4877567
939.40 0.4876449
939.50 0.487533
939.60 0.4874213
939.70 0.4873095
939.80 0.4871978
939.90 0.4870861
940.00 0.4869745
940.10 0.486863
940.20 0.4867514
940.30 0.4866399
940.40 0.4865283
940.50 0.4864169
940.60 0.4863055
940.70 0.4861941
940.80 0.4860828
940.90 0.4859714
941.00 0.4858602
941.10 0.485749
941.20 0.4856378
941.30 0.4855266
941.40 0.4854155
941.50 0.4853044
941.60 0.4851934
941.70 0.4850823
941.80 0.4849714
941.90 0.4848605
942.00 0.4847495
942.10 0.4846386
942.20 0.4845278
942.30 0.484417
942.40 0.4843063
942.50 0.4841956
942.60 0.4840848
942.70 0.4839742
942.80 0.4838636
942.90 0.483753
943.00 0.4836417
943.10 0.4835294
943.20 0.483417
943.30 0.4833047
943.40 0.4831924
943.50 0.4830802
943.60 0.4829679
943.70 0.4828558
943.80 0.4827436
943.90 0.4826315
944.00 0.4825194
944.10 0.4824074
944.20 0.4822954
944.30 0.4821834
944.40 0.4820715
944.50 0.4819596
944.60 0.4818478
944.70 0.481736
944.80 0.4816242
944.90 0.4815124
945.00 0.4814008
945.10 0.4812891
945.20 0.4811775
945.30 0.4810659
945.40 0.4809543
945.50 0.4808428
945.60 0.4807313
945.70 0.4806199
945.80 0.4805085
945.90 0.4803971
946.00 0.4802858
946.10 0.4801744
946.20 0.4800632
946.30 0.479952
946.40 0.4798408
946.50 0.4797296
946.60 0.4796186
946.70 0.4795074
946.80 0.4793964
946.90 0.4792853
947.00 0.4791744
947.10 0.4790635
947.20 0.4789525
947.30 0.4788417
947.40 0.4787309
947.50 0.47862
947.60 0.4785093
947.70 0.4783986
947.80 0.4782879
947.90 0.4781773
948.00 0.4780667
948.10 0.477956
948.20 0.4778455
948.30 0.477735
948.40 0.4776246
948.50 0.4775141
948.60 0.4774037
948.70 0.4772934
948.80 0.477183
948.90 0.4770727
949.00 0.4769625
949.10 0.4768522
949.20 0.4767421
949.30 0.476632
949.40 0.4765219
949.50 0.4764117
949.60 0.4763017
949.70 0.4761917
949.80 0.4760818
949.90 0.4759718
950.00 0.4758619
950.10 0.4757521
950.20 0.4756423
950.30 0.4755324
950.40 0.4754227
950.50 0.475313
950.60 0.4752033
950.70 0.4750937
950.80 0.474984
950.90 0.4748745
951.00 0.4747649
951.10 0.4746555
951.20 0.474546
951.30 0.4744365
951.40 0.4743271
951.50 0.4742178
951.60 0.4741085
951.70 0.4739992
951.80 0.4738899
951.90 0.4737807
952.00 0.4736715
952.10 0.4735624
952.20 0.4734533
952.30 0.4733442
952.40 0.473235
952.50 0.4731255
952.60 0.473016
952.70 0.4729066
952.80 0.4727971
952.90 0.4726877
953.00 0.4725783
953.10 0.472469
953.20 0.4723597
953.30 0.4722505
953.40 0.4721412
953.50 0.472032
953.60 0.4719228
953.70 0.4718137
953.80 0.4717047
953.90 0.4715956
954.00 0.4714866
954.10 0.4713776
954.20 0.4712686
954.30 0.4711597
954.40 0.4710509
954.50 0.470942
954.60 0.4708332
954.70 0.4707245
954.80 0.4706157
954.90 0.470507
955.00 0.4703983
955.10 0.4702897
955.20 0.4701811
955.30 0.4700726
955.40 0.4699641
955.50 0.4698556
955.60 0.4697471
955.70 0.4696387
955.80 0.4695303
955.90 0.4694219
956.00 0.4693136
956.10 0.4692054
956.20 0.4690971
956.30 0.4689889
956.40 0.4688808
956.50 0.4687726
956.60 0.4686645
956.70 0.4685565
956.80 0.4684484
956.90 0.4683404
957.00 0.4682325
957.10 0.4681246
957.20 0.4680167
957.30 0.4679088
957.40 0.4678009
957.50 0.4676931
957.60 0.4675854
957.70 0.4674776
957.80 0.46737
957.90 0.4672623
958.00 0.4671547
958.10 0.4670471
958.20 0.4669396
958.30 0.4668321
958.40 0.4667246
958.50 0.4666171
958.60 0.4665097
958.70 0.4664024
958.80 0.466295
958.90 0.4661877
959.00 0.4660805
959.10 0.4659733
959.20 0.4658661
959.30 0.465759
959.40 0.4656518
959.50 0.4655447
959.60 0.4654377
959.70 0.4653306
959.80 0.4652236
959.90 0.4651167
960.00 0.4650097
960.10 0.4649028
960.20 0.464796
960.30 0.4646892
960.40 0.4645824
960.50 0.4644756
960.60 0.4643689
960.70 0.4642622
960.80 0.4641556
960.90 0.464049
961.00 0.4639424
961.10 0.4638359
961.20 0.4637294
961.30 0.4636229
961.40 0.4635164
961.50 0.46341
961.60 0.4633036
961.70 0.4631974
961.80 0.463091
961.90 0.4629848
962.00 0.4628776
962.10 0.4627702
962.20 0.4626629
962.30 0.4625556
962.40 0.4624484
962.50 0.4623412
962.60 0.462234
962.70 0.4621269
962.80 0.4620198
962.90 0.4619127
963.00 0.4618057
963.10 0.4616987
963.20 0.4615917
963.30 0.4614848
963.40 0.4613779
963.50 0.461271
963.60 0.4611643
963.70 0.4610575
963.80 0.4609508
963.90 0.460844
964.00 0.4607373
964.10 0.4606307
964.20 0.4605241
964.30 0.4604175
964.40 0.4603109
964.50 0.4602044
964.60 0.4600979
964.70 0.4599916
964.80 0.4598851
964.90 0.4597787
965.00 0.4596724
965.10 0.4595661
965.20 0.4594598
965.30 0.4593535
965.40 0.4592473
965.50 0.4591412
965.60 0.4590351
965.70 0.458929
965.80 0.4588229
965.90 0.4587168
966.00 0.4586108
966.10 0.4585048
966.20 0.458399
966.30 0.4582931
966.40 0.4581872
966.50 0.4580814
966.60 0.4579755
966.70 0.4578698
966.80 0.4577641
966.90 0.4576584
967.00 0.4575527
967.10 0.4574471
967.20 0.4573415
967.30 0.457236
967.40 0.4571305
967.50 0.4570249
967.60 0.4569195
967.70 0.456814
967.80 0.4567087
967.90 0.4566033
968.00 0.456498
968.10 0.4563927
968.20 0.4562875
968.30 0.4561823
968.40 0.4560771
968.50 0.4559719
968.60 0.4558668
968.70 0.4557617
968.80 0.4556566
968.90 0.4555516
969.00 0.4554467
969.10 0.4553417
969.20 0.4552368
969.30 0.4551319
969.40 0.4550271
969.50 0.4549222
969.60 0.4548174
969.70 0.4547128
969.80 0.454608
969.90 0.4545033
970.00 0.4543986
970.10 0.4542941
970.20 0.4541895
970.30 0.4540849
970.40 0.4539804
970.50 0.4538759
970.60 0.4537715
970.70 0.4536671
970.80 0.4535627
970.90 0.4534583
971.00 0.4533541
971.10 0.4532498
971.20 0.4531455
971.30 0.4530413
971.40 0.4529371
971.50 0.4528329
971.60 0.4527286
971.70 0.452624
971.80 0.4525194
971.90 0.4524149
972.00 0.4523105
972.10 0.452206
972.20 0.4521015
972.30 0.4519972
972.40 0.4518929
972.50 0.4517885
972.60 0.4516843
972.70 0.4515801
972.80 0.4514758
972.90 0.4513717
973.00 0.4512675
973.10 0.4511634
973.20 0.4510594
973.30 0.4509553
973.40 0.4508513
973.50 0.4507474
973.60 0.4506434
973.70 0.4505395
973.80 0.4504356
973.90 0.4503318
974.00 0.450228
974.10 0.4501242
974.20 0.4500204
974.30 0.4499168
974.40 0.4498131
974.50 0.4497095
974.60 0.4496058
974.70 0.4495022
974.80 0.4493987
974.90 0.4492952
975.00 0.4491918
975.10 0.4490883
975.20 0.4489849
975.30 0.4488815
975.40 0.4487781
975.50 0.4486749
975.60 0.4485715
975.70 0.4484684
975.80 0.4483651
975.90 0.448262
976.00 0.4481588
976.10 0.4480556
976.20 0.4479526
976.30 0.4478495
976.40 0.4477465
976.50 0.4476435
976.60 0.4475406
976.70 0.4474377
976.80 0.4473348
976.90 0.4472319
977.00 0.4471292
977.10 0.4470263
977.20 0.4469236
977.30 0.4468208
977.40 0.4467182
977.50 0.4466155
977.60 0.4465129
977.70 0.4464103
977.80 0.4463078
977.90 0.4462052
978.00 0.4461028
978.10 0.4460003
978.20 0.4458979
978.30 0.4457954
978.40 0.4456931
978.50 0.4455907
978.60 0.4454885
978.70 0.4453862
978.80 0.445284
978.90 0.4451817
979.00 0.4450796
979.10 0.4449775
979.20 0.4448754
979.30 0.4447733
979.40 0.4446712
979.50 0.4445693
979.60 0.4444672
979.70 0.4443653
979.80 0.4442634
979.90 0.4441615
980.00 0.4440597
980.10 0.4439579
980.20 0.4438561
980.30 0.4437543
980.40 0.4436527
980.50 0.443551
980.60 0.4434493
980.70 0.4433477
980.80 0.4432461
980.90 0.4431446
981.00 0.4430431
981.10 0.4429415
981.20 0.4428401
981.30 0.4427378
981.40 0.4426349
981.50 0.4425318
981.60 0.4424289
981.70 0.4423259
981.80 0.4422231
981.90 0.4421202
982.00 0.4420174
982.10 0.4419146
982.20 0.4418118
982.30 0.4417091
982.40 0.4416064
982.50 0.4415037
982.60 0.4414011
982.70 0.4412985
982.80 0.4411959
982.90 0.4410934
983.00 0.4409909
983.10 0.4408884
983.20 0.440786
983.30 0.4406835
983.40 0.4405812
983.50 0.4404788
983.60 0.4403766
983.70 0.4402742
983.80 0.440172
983.90 0.4400698
984.00 0.4399676
984.10 0.4398655
984.20 0.4397634
984.30 0.4396613
984.40 0.4395592
984.50 0.4394572
984.60 0.4393552
984.70 0.4392533
984.80 0.4391513
984.90 0.4390495
985.00 0.4389477
985.10 0.4388458
985.20 0.438744
985.30 0.4386422
985.40 0.4385405
985.50 0.4384389
985.60 0.4383372
985.70 0.4382356
985.80 0.4381339
985.90 0.4380324
986.00 0.4379309
986.10 0.4378293
986.20 0.4377279
986.30 0.4376264
986.40 0.437525
986.50 0.4374237
986.60 0.4373223
986.70 0.437221
986.80 0.4371198
986.90 0.4370185
987.00 0.4369173
987.10 0.4368162
987.20 0.436715
987.30 0.4366139
987.40 0.4365128
987.50 0.4364117
987.60 0.4363107
987.70 0.4362098
987.80 0.4361088
987.90 0.4360079
988.00 0.435907
988.10 0.4358061
988.20 0.4357053
988.30 0.4356045
988.40 0.4355037
988.50 0.435403
988.60 0.4353023
988.70 0.4352016
988.80 0.435101
988.90 0.4350004
989.00 0.4348999
989.10 0.4347992
989.20 0.4346988
989.30 0.4345983
989.40 0.4344978
989.50 0.4343974
989.60 0.4342971
989.70 0.4341967
989.80 0.4340963
989.90 0.4339961
990.00 0.4338959
990.10 0.4337957
990.20 0.4336954
990.30 0.4335953
990.40 0.4334951
990.50 0.4333951
990.60 0.4332949
990.70 0.4331949
990.80 0.4330949
990.90 0.432995
991.00 0.432895
991.10 0.4327951
991.20 0.4326954
991.30 0.4325957
991.40 0.432496
991.50 0.4323963
991.60 0.4322967
991.70 0.4321971
991.80 0.4320976
991.90 0.431998
992.00 0.4318985
992.10 0.431799
992.20 0.4316996
992.30 0.4316002
992.40 0.4315008
992.50 0.4314015
992.60 0.4313021
992.70 0.4312028
992.80 0.4311036
992.90 0.4310044
993.00 0.4309052
993.10 0.4308061
993.20 0.430707
993.30 0.4306078
993.40 0.4305087
993.50 0.4304097
993.60 0.4303107
993.70 0.4302118
993.80 0.4301128
993.90 0.4300139
994.00 0.4299151
994.10 0.4298161
994.20 0.4297173
994.30 0.4296186
994.40 0.4295198
994.50 0.4294211
994.60 0.4293224
994.70 0.4292238
994.80 0.4291251
994.90 0.4290266
995.00 0.428928
995.10 0.4288295
995.20 0.4287309
995.30 0.4286324
995.40 0.428534
995.50 0.4284356
995.60 0.4283372
995.70 0.4282388
995.80 0.4281405
995.90 0.4280422
996.00 0.427944
996.10 0.4278458
996.20 0.4277476
996.30 0.4276494
996.40 0.4275513
996.50 0.4274532
996.60 0.4273551
996.70 0.4272571
996.80 0.4271591
996.90 0.4270611
997.00 0.4269632
997.10 0.4268652
997.20 0.4267674
997.30 0.4266695
997.40 0.4265717
997.50 0.4264739
997.60 0.4263761
997.70 0.4262784
997.80 0.4261807
997.90 0.426083
998.00 0.4259854
998.10 0.4258877
998.20 0.4257902
998.30 0.4256926
998.40 0.4255951
998.50 0.4254976
998.60 0.4254001
998.70 0.4253027
998.80 0.4252053
998.90 0.4251079
999.00 0.4250106
999.10 0.4249133
999.20 0.424816
999.30 0.4247187
999.40 0.4246215
999.50 0.4245243
999.60 0.4244272
999.70 0.42433
999.80 0.4242329
999.90 0.4241359
1000.00 0.4240388
1000.10 0.4239418
1000.20 0.4238449
1000.30 0.423748
1000.40 0.4236511
1000.50 0.4235542
1000.60 0.4234573
1000.70 0.4233605
1000.80 0.4232637
1000.90 0.4231669
1001.00 0.4230699
1001.10 0.4229723
1001.20 0.4228746
1001.30 0.422777
1001.40 0.4226794
1001.50 0.4225818
1001.60 0.4224843
1001.70 0.4223868
1001.80 0.4222894
1001.90 0.4221919
1002.00 0.4220945
1002.10 0.4219972
1002.20 0.4218999
1002.30 0.4218026
1002.40 0.4217053
1002.50 0.421608
1002.60 0.4215108
1002.70 0.4214136
1002.80 0.4213164
1002.90 0.4212193
1003.00 0.4211222
1003.10 0.4210251
1003.20 0.4209281
1003.30 0.4208311
1003.40 0.4207341
1003.50 0.4206371
1003.60 0.4205402
1003.70 0.4204434
1003.80 0.4203465
1003.90 0.4202497
1004.00 0.4201529
1004.10 0.4200561
1004.20 0.4199594
1004.30 0.4198627
1004.40 0.419766
1004.50 0.4196693
1004.60 0.4195728
1004.70 0.4194762
1004.80 0.4193796
1004.90 0.4192831
1005.00 0.4191866
1005.10 0.4190901
1005.20 0.4189937
1005.30 0.4188972
1005.40 0.418801
1005.50 0.4187046
1005.60 0.4186083
1005.70 0.418512
1005.80 0.4184157
1005.90 0.4183195
1006.00 0.418223
1006.10 0.4181258
1006.20 0.4180286
1006.30 0.4179315
1006.40 0.4178343
1006.50 0.4177371
1006.60 0.41764
1006.70 0.417543
1006.80 0.4174459
1006.90 0.4173489
1007.00 0.4172519
1007.10 0.417155
1007.20 0.417058
1007.30 0.4169611
1007.40 0.4168643
1007.50 0.4167675
1007.60 0.4166707
1007.70 0.4165739
1007.80 0.4164772
1007.90 0.4163805
1008.00 0.4162838
1008.10 0.4161871
1008.20 0.4160905
1008.30 0.4159939
1008.40 0.4158973
1008.50 0.4158009
1008.60 0.4157044
1008.70 0.4156079
1008.80 0.4155115
1008.90 0.415415
1009.00 0.4153187
1009.10 0.4152223
1009.20 0.4151261
1009.30 0.4150298
1009.40 0.4149335
1009.50 0.4148373
1009.60 0.414741
1009.70 0.4146449
1009.80 0.4145488
1009.90 0.4144527
1010.00 0.4143566
1010.10 0.4142605
1010.20 0.4141645
1010.30 0.4140685
1010.40 0.4139726
1010.50 0.4138767
1010.60 0.4137808
1010.70 0.4136849
1010.80 0.413589
1010.90 0.4134933
1011.00 0.4133977
1011.10 0.4133031
1011.20 0.4132086
1011.30 0.4131142
1011.40 0.4130197
1011.50 0.4129252
1011.60 0.4128309
1011.70 0.4127365
1011.80 0.4126421
1011.90 0.4125479
1012.00 0.4124535
1012.10 0.4123594
1012.20 0.4122651
1012.30 0.4121709
1012.40 0.4120768
1012.50 0.4119826
1012.60 0.4118885
1012.70 0.4117945
1012.80 0.4117004
1012.90 0.4116063
1013.00 0.4115124
1013.10 0.4114184
1013.20 0.4113245
1013.30 0.4112306
1013.40 0.4111367
1013.50 0.4110429
1013.60 0.410949
1013.70 0.4108553
1013.80 0.4107615
1013.90 0.4106678
1014.00 0.4105741
1014.10 0.4104804
1014.20 0.4103868
1014.30 0.4102932
1014.40 0.4101997
1014.50 0.4101061
1014.60 0.4100125
1014.70 0.4099191
1014.80 0.4098256
1014.90 0.4097322
1015.00 0.4096387
1015.10 0.4095454
1015.20 0.409452
1015.30 0.4093587
1015.40 0.4092654
1015.50 0.4091721
1015.60 0.4090789
1015.70 0.4089857
1015.80 0.4088925
1015.90 0.4087993
1016.00 0.4087063
1016.10 0.4086125
1016.20 0.4085184
1016.30 0.4084243
1016.40 0.4083302
1016.50 0.4082362
1016.60 0.4081422
1016.70 0.4080482
1016.80 0.4079543
1016.90 0.4078604
1017.00 0.4077665
1017.10 0.4076727
1017.20 0.4075788
1017.30 0.4074851
1017.40 0.4073912
1017.50 0.4072976
1017.60 0.4072038
1017.70 0.4071102
1017.80 0.4070165
1017.90 0.4069228
1018.00 0.4068293
1018.10 0.4067357
1018.20 0.4066422
1018.30 0.4065487
1018.40 0.4064552
1018.50 0.4063618
1018.60 0.4062683
1018.70 0.406175
1018.80 0.4060815
1018.90 0.4059883
1019.00 0.4058949
1019.10 0.4058017
1019.20 0.4057084
1019.30 0.4056152
1019.40 0.405522
1019.50 0.4054289
1019.60 0.4053357
1019.70 0.4052426
1019.80 0.4051495
1019.90 0.4050564
1020.00 0.4049635
1020.10 0.4048704
1020.20 0.4047775
1020.30 0.4046846
1020.40 0.4045917
1020.50 0.4044988
1020.60 0.404406
1020.70 0.4043131
1020.80 0.4042204
1020.90 0.4041276
1021.00 0.4040349
1021.10 0.4039421
1021.20 0.4038486
1021.30 0.403755
1021.40 0.4036615
1021.50 0.403568
1021.60 0.4034746
1021.70 0.4033811
1021.80 0.4032877
1021.90 0.4031944
1022.00 0.403101
1022.10 0.4030077
1022.20 0.4029144
1022.30 0.4028212
1022.40 0.4027279
1022.50 0.4026348
1022.60 0.4025416
1022.70 0.4024485
1022.80 0.4023553
1022.90 0.4022623
1023.00 0.4021692
1023.10 0.4020762
1023.20 0.4019832
1023.30 0.4018902
1023.40 0.4017973
1023.50 0.4017043
1023.60 0.4016115
1023.70 0.4015186
1023.80 0.4014258
1023.90 0.401333
1024.00 0.4012402
1024.10 0.4011476
1024.20 0.4010548
1024.30 0.4009622
1024.40 0.4008695
1024.50 0.4007769
1024.60 0.4006842
1024.70 0.4005917
1024.80 0.4004991
1024.90 0.4004067
1025.00 0.4003141
1025.10 0.4002217
1025.20 0.4001292
1025.30 0.4000369
1025.40 0.3999445
1025.50 0.3998522
1025.60 0.3997599
1025.70 0.3996676
1025.80 0.3995754
1025.90 0.3994831
1026.00 0.3993909
1026.10 0.3992987
1026.20 0.3992066
1026.30 0.3991145
1026.40 0.3990224
1026.50 0.3989304
1026.60 0.3988383
1026.70 0.3987463
1026.80 0.3986543
1026.90 0.3985624
1027.00 0.3984705
1027.10 0.3983786
1027.20 0.3982867
1027.30 0.3981948
1027.40 0.3981031
1027.50 0.3980113
1027.60 0.3979195
1027.70 0.3978279
1027.80 0.3977362
1027.90 0.3976445
1028.00 0.3975529
1028.10 0.3974612
1028.20 0.3973697
1028.30 0.3972782
1028.40 0.3971866
1028.50 0.3970951
1028.60 0.3970037
1028.70 0.3969122
1028.80 0.3968208
1028.90 0.3967295
1029.00 0.396638
1029.10 0.3965467
1029.20 0.3964554
1029.30 0.3963641
1029.40 0.3962729
1029.50 0.3961817
1029.60 0.3960905
1029.70 0.3959994
1029.80 0.3959082
1029.90 0.3958171
1030.00 0.3957261
1030.10 0.395635
1030.20 0.395544
1030.30 0.395453
1030.40 0.3953621
1030.50 0.3952711
1030.60 0.3951802
1030.70 0.3950893
1030.80 0.3949984
1030.90 0.3949076
1031.00 0.3948169
1031.10 0.3947261
1031.20 0.3946353
1031.30 0.3945446
1031.40 0.3944541
1031.50 0.3943635
1031.60 0.394273
1031.70 0.3941826
1031.80 0.3940922
1031.90 0.3940017
1032.00 0.3939114
1032.10 0.3938211
1032.20 0.3937308
1032.30 0.3936404
1032.40 0.3935501
1032.50 0.3934599
1032.60 0.3933697
1032.70 0.3932796
1032.80 0.3931894
1032.90 0.3930992
1033.00 0.3930092
1033.10 0.3929191
1033.20 0.392829
1033.30 0.392739
1033.40 0.392649
1033.50 0.3925591
1033.60 0.3924692
1033.70 0.3923792
1033.80 0.3922893
1033.90 0.3921995
1034.00 0.3921097
1034.10 0.3920199
1034.20 0.3919302
1034.30 0.3918403
1034.40 0.3917506
1034.50 0.391661
1034.60 0.3915713
1034.70 0.3914817
1034.80 0.391392
1034.90 0.3913024
1035.00 0.3912129
1035.10 0.3911234
1035.20 0.3910339
1035.30 0.3909445
1035.40 0.390855
1035.50 0.3907655
1035.60 0.3906762
1035.70 0.3905868
1035.80 0.3904975
1035.90 0.3904082
1036.00 0.3903189
1036.10 0.3902297
1036.20 0.3901404
1036.30 0.3900512
1036.40 0.389962
1036.50 0.3898729
1036.60 0.3897838
1036.70 0.3896947
1036.80 0.3896057
1036.90 0.3895166
1037.00 0.3894275
1037.10 0.3893386
1037.20 0.3892496
1037.30 0.3891607
1037.40 0.3890718
1037.50 0.3889829
1037.60 0.3888941
1037.70 0.3888053
1037.80 0.3887165
1037.90 0.3886278
1038.00 0.388539
1038.10 0.3884503
1038.20 0.3883615
1038.30 0.3882729
1038.40 0.3881843
1038.50 0.3880957
1038.60 0.3880071
1038.70 0.3879185
1038.80 0.38783
1038.90 0.3877415
1039.00 0.3876531
1039.10 0.3875646
1039.20 0.3874762
1039.30 0.3873878
1039.40 0.3872995
1039.50 0.3872111
1039.60 0.3871228
1039.70 0.3870345
1039.80 0.3869463
1039.90 0.3868581
1040.00 0.3867699
1040.10 0.3866817
1040.20 0.3865935
1040.30 0.3865054
1040.40 0.3864173
1040.50 0.3863293
1040.60 0.3862412
1040.70 0.3861532
1040.80 0.3860651
1040.90 0.3859773
1041.00 0.3858893
1041.10 0.3858014
1041.20 0.3857135
1041.30 0.3856257
1041.40 0.3855378
1041.50 0.38545
1041.60 0.3853623
1041.70 0.3852738
1041.80 0.3851852
1041.90 0.3850966
1042.00 0.3850081
1042.10 0.3849197
1042.20 0.3848312
1042.30 0.3847428
1042.40 0.3846544
1042.50 0.3845661
1042.60 0.3844777
1042.70 0.3843894
1042.80 0.3843011
1042.90 0.3842129
1043.00 0.3841246
1043.10 0.3840364
1043.20 0.3839482
1043.30 0.3838601
1043.40 0.383772
1043.50 0.3836839
1043.60 0.3835958
1043.70 0.3835077
1043.80 0.3834197
1043.90 0.3833317
1044.00 0.3832437
1044.10 0.3831558
1044.20 0.3830679
1044.30 0.38298
1044.40 0.3828921
1044.50 0.3828043
1044.60 0.3827165
1044.70 0.3826287
1044.80 0.3825409
1044.90 0.3824532
1045.00 0.3823655
1045.10 0.3822778
1045.20 0.3821902
1045.30 0.3821026
1045.40 0.382015
1045.50 0.3819274
1045.60 0.3818398
1045.70 0.3817523
1045.80 0.3816648
1045.90 0.3815773
1046.00 0.3814899
1046.10 0.3814025
1046.20 0.3813152
1046.30 0.3812278
1046.40 0.3811405
1046.50 0.3810532
1046.60 0.3809659
1046.70 0.3808786
1046.80 0.3807914
1046.90 0.3807042
1047.00 0.380617
1047.10 0.3805299
1047.20 0.3804427
1047.30 0.3803556
1047.40 0.3802685
1047.50 0.3801816
1047.60 0.3800946
1047.70 0.3800076
1047.80 0.3799206
1047.90 0.3798337
1048.00 0.3797467
1048.10 0.3796598
1048.20 0.379573
1048.30 0.3794861
1048.40 0.3793994
1048.50 0.3793126
1048.60 0.3792259
1048.70 0.3791391
1048.80 0.3790524
1048.90 0.3789657
1049.00 0.3788791
1049.10 0.3787924
1049.20 0.3787059
1049.30 0.3786193
1049.40 0.3785328
1049.50 0.3784462
1049.60 0.3783597
1049.70 0.3782732
1049.80 0.3781869
1049.90 0.3781005
1050.00 0.3780141
1050.10 0.3779277
1050.20 0.3778413
1050.30 0.377755
1050.40 0.3776688
1050.50 0.3775825
1050.60 0.3774963
1050.70 0.3774101
1050.80 0.3773239
1050.90 0.3772377
1051.00 0.3771516
1051.10 0.3770655
1051.20 0.3769794
1051.30 0.3768934
1051.40 0.3768073
1051.50 0.3767214
1051.60 0.3766354
1051.70 0.3765494
1051.80 0.3764635
1051.90 0.3763776
1052.00 0.3762918
1052.10 0.3762054
1052.20 0.3761188
1052.30 0.3760322
1052.40 0.3759456
1052.50 0.375859
1052.60 0.3757726
1052.70 0.3756861
1052.80 0.3755996
1052.90 0.3755132
1053.00 0.3754267
1053.10 0.3753403
1053.20 0.375254
1053.30 0.3751677
1053.40 0.3750814
1053.50 0.3749951
1053.60 0.3749088
1053.70 0.3748226
1053.80 0.3747365
1053.90 0.3746503
1054.00 0.3745641
1054.10 0.374478
1054.20 0.3743918
1054.30 0.3743058
1054.40 0.3742198
1054.50 0.3741338
1054.60 0.3740477
1054.70 0.3739617
1054.80 0.3738758
1054.90 0.3737899
1055.00 0.373704
1055.10 0.3736182
1055.20 0.3735323
1055.30 0.3734466
1055.40 0.3733607
1055.50 0.373275
1055.60 0.3731892
1055.70 0.3731035
1055.80 0.3730179
1055.90 0.3729322
1056.00 0.3728465
1056.10 0.3727609
1056.20 0.3726754
1056.30 0.3725898
1056.40 0.3725043
1056.50 0.3724187
1056.60 0.3723333
1056.70 0.3722478
1056.80 0.3721624
1056.90 0.372077
1057.00 0.3719917
1057.10 0.3719063
1057.20 0.3718209
1057.30 0.3717357
1057.40 0.3716504
1057.50 0.3715651
1057.60 0.3714799
1057.70 0.3713948
1057.80 0.3713096
1057.90 0.3712244
1058.00 0.3711392
1058.10 0.3710542
1058.20 0.3709691
1058.30 0.370884
1058.40 0.3707991
1058.50 0.3707141
1058.60 0.3706291
1058.70 0.3705442
1058.80 0.3704593
1058.90 0.3703743
1059.00 0.3702895
1059.10 0.3702047
1059.20 0.3701198
1059.30 0.3700351
1059.40 0.3699503
1059.50 0.3698655
1059.60 0.3697809
1059.70 0.3696962
1059.80 0.3696115
1059.90 0.3695269
1060.00 0.3694423
1060.10 0.3693577
1060.20 0.3692732
1060.30 0.3691886
1060.40 0.369104
1060.50 0.3690196
1060.60 0.3689351
1060.70 0.3688507
1060.80 0.3687663
1060.90 0.3686819
1061.00 0.3685975
1061.10 0.3685132
1061.20 0.3684289
1061.30 0.3683447
1061.40 0.3682604
1061.50 0.3681761
1061.60 0.368092
1061.70 0.3680077
1061.80 0.3679236
1061.90 0.3678395
1062.00 0.3677553
1062.10 0.3676713
1062.20 0.3675872
1062.30 0.3675033
1062.40 0.3674192
1062.50 0.3673352
1062.60 0.3672514
1062.70 0.3671675
1062.80 0.3670838
1062.90 0.3670001
1063.00 0.3669163
1063.10 0.3668327
1063.20 0.366749
1063.30 0.3666654
1063.40 0.3665817
1063.50 0.3664982
1063.60 0.3664146
1063.70 0.3663311
1063.80 0.3662476
1063.90 0.3661642
1064.00 0.3660806
1064.10 0.3659972
1064.20 0.3659138
1064.30 0.3658304
1064.40 0.3657471
1064.50 0.3656637
1064.60 0.3655804
1064.70 0.3654971
1064.80 0.3654139
1064.90 0.3653306
1065.00 0.3652475
1065.10 0.3651642
1065.20 0.3650811
1065.30 0.3649979
1065.40 0.3649149
1065.50 0.3648317
1065.60 0.3647487
1065.70 0.3646656
1065.80 0.3645827
1065.90 0.3644996
1066.00 0.3644167
1066.10 0.3643337
1066.20 0.3642509
1066.30 0.3641679
1066.40 0.3640851
1066.50 0.3640022
1066.60 0.3639195
1066.70 0.3638366
1066.80 0.3637539
1066.90 0.3636711
1067.00 0.3635884
1067.10 0.3635058
1067.20 0.3634231
1067.30 0.3633405
1067.40 0.3632578
1067.50 0.3631753
1067.60 0.3630926
1067.70 0.3630101
1067.80 0.3629276
1067.90 0.3628448
1068.00 0.3627614
1068.10 0.3626781
1068.20 0.3625947
1068.30 0.3625114
1068.40 0.3624281
1068.50 0.3623449
1068.60 0.3622616
1068.70 0.3621785
1068.80 0.3620953
1068.90 0.3620121
1069.00 0.361929
1069.10 0.3618459
1069.20 0.3617628
1069.30 0.3616798
1069.40 0.3615967
1069.50 0.3615137
1069.60 0.3614307
1069.70 0.3613478
1069.80 0.3612648
1069.90 0.3611819
1070.00 0.361099
1070.10 0.3610162
1070.20 0.3609333
1070.30 0.3608505
1070.40 0.3607677
1070.50 0.360685
1070.60 0.3606023
1070.70 0.3605195
1070.80 0.3604369
1070.90 0.3603542
1071.00 0.3602716
1071.10 0.3601889
1071.20 0.3601064
1071.30 0.3600237
1071.40 0.3599412
1071.50 0.3598587
1071.60 0.3597762
1071.70 0.3596938
1071.80 0.3596113
1071.90 0.3595289
1072.00 0.3594465
1072.10 0.3593642
1072.20 0.3592817
1072.30 0.3591995
1072.40 0.3591172
1072.50 0.3590349
1072.60 0.3589527
1072.70 0.3588704
1072.80 0.3587882
1072.90 0.3587061
1073.00 0.3586239
1073.10 0.3585418
1073.20 0.3584597
1073.30 0.3583778
1073.40 0.358296
1073.50 0.358214
1073.60 0.3581322
1073.70 0.3580503
1073.80 0.3579686
1073.90 0.3578868
1074.00 0.357805
1074.10 0.3577233
1074.20 0.3576416
1074.30 0.3575599
1074.40 0.3574783
1074.50 0.3573967
1074.60 0.357315
1074.70 0.3572335
1074.80 0.3571519
1074.90 0.3570703
1075.00 0.3569889
1075.10 0.3569074
1075.20 0.3568259
1075.30 0.3567445
1075.40 0.3566631
1075.50 0.3565816
1075.60 0.3565003
1075.70 0.356419
1075.80 0.3563376
1075.90 0.3562564
1076.00 0.3561751
1076.10 0.3560938
1076.20 0.3560126
1076.30 0.3559314
1076.40 0.3558502
1076.50 0.3557691
1076.60 0.355688
1076.70 0.3556068
1076.80 0.3555258
1076.90 0.3554447
1077.00 0.3553638
1077.10 0.3552827
1077.20 0.3552017
1077.30 0.3551208
1077.40 0.3550398
1077.50 0.3549589
1077.60 0.354878
1077.70 0.3547972
1077.80 0.3547163
1077.90 0.3546355
1078.00 0.3545548
1078.10 0.354474
1078.20 0.3543932
1078.30 0.3543125
1078.40 0.3542318
1078.50 0.3541512
1078.60 0.3540705
1078.70 0.3539899
1078.80 0.3539093
1078.90 0.3538288
1079.00 0.3537481
1079.10 0.3536676
1079.20 0.3535871
1079.30 0.3535067
1079.40 0.3534262
1079.50 0.3533457
1079.60 0.3532654
1079.70 0.353185
1079.80 0.3531046
1079.90 0.3530242
1080.00 0.3529439
1080.10 0.3528637
1080.20 0.3527834
1080.30 0.3527031
1080.40 0.3526229
1080.50 0.3525427
1080.60 0.3524626
1080.70 0.3523825
1080.80 0.3523023
1080.90 0.3522222
1081.00 0.3521421
1081.10 0.3520621
1081.20 0.3519821
1081.30 0.351902
1081.40 0.351822
1081.50 0.3517421
1081.60 0.3516622
1081.70 0.3515823
1081.80 0.3515024
1081.90 0.3514224
1082.00 0.3513426
1082.10 0.3512628
1082.20 0.351183
1082.30 0.3511033
1082.40 0.3510236
1082.50 0.3509437
1082.60 0.3508641
1082.70 0.3507844
1082.80 0.3507048
1082.90 0.3506251
1083.00 0.3505455
1083.10 0.350466
1083.20 0.3503863
1083.30 0.3503068
1083.40 0.3502273
1083.50 0.3501478
1083.60 0.3500684
1083.70 0.3499889
1083.80 0.3499095
1083.90 0.3498301
1084.00 0.3497508
1084.10 0.3496716
1084.20 0.3495925
1084.30 0.3495133
1084.40 0.3494342
1084.50 0.3493551
1084.60 0.349276
1084.70 0.349197
1084.80 0.3491179
1084.90 0.3490389
1085.00 0.3489598
1085.10 0.3488809
1085.20 0.3488019
1085.30 0.348723
1085.40 0.3486441
1085.50 0.3485653
1085.60 0.3484864
1085.70 0.3484076
1085.80 0.3483288
1085.90 0.34825
1086.00 0.3481713
1086.10 0.3480925
1086.20 0.3480138
1086.30 0.3479351
1086.40 0.3478565
1086.50 0.3477777
1086.60 0.3476991
1086.70 0.3476205
1086.80 0.3475419
1086.90 0.3474634
1087.00 0.3473849
1087.10 0.3473064
1087.20 0.3472279
1087.30 0.3471494
1087.40 0.347071
1087.50 0.3469926
1087.60 0.3469142
1087.70 0.3468358
1087.80 0.3467575
1087.90 0.3466791
1088.00 0.3466008
1088.10 0.3465226
1088.20 0.3464443
1088.30 0.3463661
1088.40 0.3462879
1088.50 0.3462097
1088.60 0.3461315
1088.70 0.3460534
1088.80 0.3459752
1088.90 0.3458972
1089.00 0.3458191
1089.10 0.345741
1089.20 0.345663
1089.30 0.345585
1089.40 0.3455064
1089.50 0.3454276
1089.60 0.3453488
1089.70 0.3452701
1089.80 0.3451913
1089.90 0.3451126
1090.00 0.3450339
1090.10 0.3449552
1090.20 0.3448766
1090.30 0.344798
1090.40 0.3447194
1090.50 0.3446408
1090.60 0.3445622
1090.70 0.3444836
1090.80 0.3444051
1090.90 0.3443266
1091.00 0.3442481
1091.10 0.3441697
1091.20 0.3440912
1091.30 0.3440128
1091.40 0.3439345
1091.50 0.3438561
1091.60 0.3437778
1091.70 0.3436995
1091.80 0.3436212
1091.90 0.3435429
1092.00 0.3434647
1092.10 0.3433865
1092.20 0.3433083
1092.30 0.3432301
1092.40 0.343152
1092.50 0.3430738
1092.60 0.3429957
1092.70 0.3429176
1092.80 0.3428396
1092.90 0.3427615
1093.00 0.3426835
1093.10 0.3426055
1093.20 0.3425276
1093.30 0.3424496
1093.40 0.3423717
1093.50 0.3422938
1093.60 0.3422159
1093.70 0.3421382
1093.80 0.3420603
1093.90 0.3419825
1094.00 0.3419047
1094.10 0.341827
1094.20 0.3417492
1094.30 0.3416715
1094.40 0.3415938
1094.50 0.3415161
1094.60 0.3414385
1094.70 0.3413608
1094.80 0.3412831
1094.90 0.3412052
1095.00 0.3411274
1095.10 0.3410496
1095.20 0.3409718
1095.30 0.3408941
1095.40 0.3408163
1095.50 0.3407386
1095.60 0.3406609
1095.70 0.3405833
1095.80 0.3405057
1095.90 0.3404281
1096.00 0.3403505
1096.10 0.3402729
1096.20 0.3401953
1096.30 0.3401178
1096.40 0.3400403
1096.50 0.3399628
1096.60 0.3398853
1096.70 0.3398079
1096.80 0.3397305
1096.90 0.3396531
1097.00 0.3395757
1097.10 0.3394983
1097.20 0.3394211
1097.30 0.3393438
1097.40 0.3392665
1097.50 0.3391892
1097.60 0.339112
1097.70 0.3390348
1097.80 0.3389576
1097.90 0.3388804
1098.00 0.3388032
1098.10 0.3387261
1098.20 0.3386491
1098.30 0.338572
1098.40 0.3384949
1098.50 0.3384179
1098.60 0.3383409
1098.70 0.3382639
1098.80 0.3381869
1098.90 0.3381099
1099.00 0.3380331
1099.10 0.3379562
1099.20 0.3378793
1099.30 0.3378024
1099.40 0.3377256
1099.50 0.3376487
1099.60 0.3375719
1099.70 0.3374953
1099.80 0.3374185
1099.90 0.3373418
1100.00 0.3372651
1100.10 0.3371884
1100.20 0.3371117
1100.30 0.3370351
1100.40 0.3369585
1100.50 0.3368819
1100.60 0.3368054
1100.70 0.3367288
1100.80 0.3366523
1100.90 0.3365757
1101.00 0.3364994
1101.10 0.3364229
1101.20 0.3363464
1101.30 0.33627
1101.40 0.3361936
1101.50 0.3361173
1101.60 0.336041
1101.70 0.3359646
1101.80 0.3358883
1101.90 0.335812
1102.00 0.3357358
1102.10 0.3356596
1102.20 0.3355834
1102.30 0.3355072
1102.40 0.335431
1102.50 0.3353549
1102.60 0.3352788
1102.70 0.3352026
1102.80 0.3351265
1102.90 0.3350505
1103.00 0.3349745
1103.10 0.3348985
1103.20 0.3348225
1103.30 0.3347465
1103.40 0.3346706
1103.50 0.3345947
1103.60 0.3345188
1103.70 0.3344429
1103.80 0.3343671
1103.90 0.3342912
1104.00 0.3342154
1104.10 0.3341396
1104.20 0.3340638
1104.30 0.3339881
1104.40 0.3339124
1104.50 0.3338366
1104.60 0.333761
1104.70 0.3336853
1104.80 0.3336097
1104.90 0.333534
1105.00 0.3334585
1105.10 0.3333829
1105.20 0.3333073
1105.30 0.3332318
1105.40 0.3331564
1105.50 0.3330809
1105.60 0.3330054
1105.70 0.3329299
1105.80 0.3328547
1105.90 0.3327794
1106.00 0.3327042
1106.10 0.332629
1106.20 0.3325538
1106.30 0.3324786
1106.40 0.3324036
1106.50 0.3323284
1106.60 0.3322533
1106.70 0.3321783
1106.80 0.3321032
1106.90 0.3320282
1107.00 0.3319532
1107.10 0.3318782
1107.20 0.3318032
1107.30 0.3317283
1107.40 0.3316534
1107.50 0.3315784
1107.60 0.3315036
1107.70 0.3314287
1107.80 0.3313539
1107.90 0.3312791
1108.00 0.3312043
1108.10 0.3311295
1108.20 0.3310548
1108.30 0.3309801
1108.40 0.3309053
1108.50 0.3308307
1108.60 0.330756
1108.70 0.3306813
1108.80 0.3306068
1108.90 0.3305321
1109.00 0.3304576
1109.10 0.330383
1109.20 0.3303085
1109.30 0.330234
1109.40 0.3301595
1109.50 0.330085
1109.60 0.3300106
1109.70 0.3299362
1109.80 0.3298618
1109.90 0.3297874
1110.00 0.329713
1110.10 0.3296387
1110.20 0.3295644
1110.30 0.3294901
1110.40 0.3294158
1110.50 0.3293415
1110.60 0.3292674
1110.70 0.3291931
1110.80 0.329119
1110.90 0.3290448
1111.00 0.3289706
1111.10 0.3288965
1111.20 0.3288224
1111.30 0.3287483
1111.40 0.3286742
1111.50 0.3286003
1111.60 0.3285262
1111.70 0.3284522
1111.80 0.3283782
1111.90 0.3283042
1112.00 0.3282304
1112.10 0.3281564
1112.20 0.3280826
1112.30 0.3280087
1112.40 0.3279348
1112.50 0.327861
1112.60 0.3277872
1112.70 0.3277134
1112.80 0.3276396
1112.90 0.3275659
1113.00 0.3274922
1113.10 0.3274185
1113.20 0.3273448
1113.30 0.3272712
1113.40 0.3271975
1113.50 0.327124
1113.60 0.3270503
1113.70 0.3269767
1113.80 0.3269032
1113.90 0.3268296
1114.00 0.3267562
1114.10 0.3266826
1114.20 0.3266092
1114.30 0.3265357
1114.40 0.3264624
1114.50 0.3263889
1114.60 0.3263156
1114.70 0.3262422
1114.80 0.3261689
1114.90 0.3260955
1115.00 0.3260223
1115.10 0.3259489
1115.20 0.3258757
1115.30 0.3258024
1115.40 0.3257293
1115.50 0.325656
1115.60 0.3255829
1115.70 0.3255097
1115.80 0.3254366
1115.90 0.3253635
1116.00 0.3252904
1116.10 0.3252173
1116.20 0.3251443
1116.30 0.3250713
1116.40 0.3249983
1116.50 0.3249254
1116.60 0.3248523
1116.70 0.3247794
1116.80 0.324706
1116.90 0.3246321
1117.00 0.3245582
1117.10 0.3244842
1117.20 0.3244104
1117.30 0.3243365
1117.40 0.3242627
1117.50 0.3241889
1117.60 0.3241152
1117.70 0.3240413
1117.80 0.3239677
1117.90 0.3238939
1118.00 0.3238202
1118.10 0.3237465
1118.20 0.3236728
1118.30 0.3235992
1118.40 0.3235256
1118.50 0.323452
1118.60 0.3233784
1118.70 0.3233049
1118.80 0.3232313
1118.90 0.3231578
1119.00 0.3230843
1119.10 0.3230109
1119.20 0.3229374
1119.30 0.322864
1119.40 0.3227906
1119.50 0.3227172
1119.60 0.3226438
1119.70 0.3225705
1119.80 0.3224971
1119.90 0.3224239
1120.00 0.3223506
1120.10 0.3222773
1120.20 0.3222041
1120.30 0.3221309
1120.40 0.3220576
1120.50 0.3219845
1120.60 0.3219113
1120.70 0.3218382
1120.80 0.3217651
1120.90 0.321692
1121.00 0.3216189
1121.10 0.3215459
1121.20 0.3214728
1121.30 0.3213998
1121.40 0.3213268
1121.50 0.3212539
1121.60 0.321181
1121.70 0.321108
1121.80 0.3210352
1121.90 0.3209622
1122.00 0.3208894
1122.10 0.3208165
1122.20 0.3207437
1122.30 0.3206709
1122.40 0.3205986
1122.50 0.3205267
1122.60 0.3204547
1122.70 0.3203828
1122.80 0.3203108
1122.90 0.3202389
1123.00 0.3201671
1123.10 0.3200952
1123.20 0.3200234
1123.30 0.3199516
1123.40 0.3198797
1123.50 0.319808
1123.60 0.3197363
1123.70 0.3196645
1123.80 0.3195928
1123.90 0.3195211
1124.00 0.3194494
1124.10 0.3193778
1124.20 0.3193062
1124.30 0.3192345
1124.40 0.3191629
1124.50 0.3190914
1124.60 0.3190198
1124.70 0.3189483
1124.80 0.3188768
1124.90 0.3188053
1125.00 0.3187338
1125.10 0.3186624
1125.20 0.318591
1125.30 0.3185195
1125.40 0.3184482
1125.50 0.3183769
1125.60 0.3183054
1125.70 0.3182341
1125.80 0.3181629
1125.90 0.3180915
1126.00 0.3180203
1126.10 0.3179491
1126.20 0.3178779
1126.30 0.3178066
1126.40 0.3177355
1126.50 0.3176643
1126.60 0.3175931
1126.70 0.317522
1126.80 0.3174509
1126.90 0.3173799
1127.00 0.3173087
1127.10 0.3172377
1127.20 0.3171667
1127.30 0.3170958
1127.40 0.3170247
1127.50 0.3169538
1127.60 0.3168829
1127.70 0.316812
1127.80 0.316741
1127.90 0.3166701
1128.00 0.3165988
1128.10 0.3165273
1128.20 0.3164559
1128.30 0.3163845
1128.40 0.3163132
1128.50 0.3162417
1128.60 0.3161704
1128.70 0.3160991
1128.80 0.3160277
1128.90 0.3159564
1129.00 0.3158852
1129.10 0.3158139
1129.20 0.3157427
1129.30 0.3156715
1129.40 0.3156003
1129.50 0.3155291
1129.60 0.315458
1129.70 0.3153869
1129.80 0.3153157
1129.90 0.3152446
1130.00 0.3151736
1130.10 0.3151025
1130.20 0.3150314
1130.30 0.3149605
1130.40 0.3148895
1130.50 0.3148185
1130.60 0.3147475
1130.70 0.3146766
1130.80 0.3146057
1130.90 0.3145349
1131.00 0.3144639
1131.10 0.3143931
1131.20 0.3143223
1131.30 0.3142515
1131.40 0.3141807
1131.50 0.3141099
1131.60 0.3140392
1131.70 0.3139685
1131.80 0.3138977
1131.90 0.313827
1132.00 0.3137564
1132.10 0.3136858
1132.20 0.3136151
1132.30 0.3135445
1132.40 0.3134739
1132.50 0.3134034
1132.60 0.3133328
1132.70 0.3132622
1132.80 0.3131917
1132.90 0.3131213
1133.00 0.3130508
1133.10 0.3129804
1133.20 0.3129099
1133.30 0.3128395
1133.40 0.3127691
1133.50 0.3126988
1133.60 0.3126285
1133.70 0.3125581
1133.80 0.3124878
1133.90 0.3124175
1134.00 0.3123473
1134.10 0.312277
1134.20 0.3122067
1134.30 0.3121365
1134.40 0.3120664
1134.50 0.3119962
1134.60 0.3119261
1134.70 0.311856
1134.80 0.3117858
1134.90 0.3117157
1135.00 0.3116457
1135.10 0.3115756
1135.20 0.3115056
1135.30 0.3114355
1135.40 0.3113655
1135.50 0.3112956
1135.60 0.3112257
1135.70 0.3111557
1135.80 0.3110858
1135.90 0.311016
1136.00 0.310946
1136.10 0.3108762
1136.20 0.3108064
1136.30 0.3107366
1136.40 0.3106668
1136.50 0.310597
1136.60 0.3105273
1136.70 0.3104575
1136.80 0.3103878
1136.90 0.3103181
1137.00 0.3102484
1137.10 0.3101788
1137.20 0.3101092
1137.30 0.3100396
1137.40 0.30997
1137.50 0.3099003
1137.60 0.3098308
1137.70 0.3097613
1137.80 0.3096918
1137.90 0.3096223
1138.00 0.3095528
1138.10 0.3094834
1138.20 0.3094139
1138.30 0.3093445
1138.40 0.309275
1138.50 0.3092057
1138.60 0.3091363
1138.70 0.309067
1138.80 0.3089977
1138.90 0.3089284
1139.00 0.3088591
1139.10 0.3087899
1139.20 0.3087206
1139.30 0.3086512
1139.40 0.3085818
1139.50 0.3085123
1139.60 0.3084429
1139.70 0.3083736
1139.80 0.3083042
1139.90 0.3082349
1140.00 0.3081656
1140.10 0.3080963
1140.20 0.3080271
1140.30 0.3079578
1140.40 0.3078886
1140.50 0.3078194
1140.60 0.3077501
1140.70 0.307681
1140.80 0.3076118
1140.90 0.3075427
1141.00 0.3074736
1141.10 0.3074045
1141.20 0.3073354
1141.30 0.3072664
1141.40 0.3071973
1141.50 0.3071283
1141.60 0.3070593
1141.70 0.3069904
1141.80 0.3069214
1141.90 0.3068525
1142.00 0.3067836
1142.10 0.3067147
1142.20 0.3066457
1142.30 0.3065769
1142.40 0.306508
1142.50 0.3064392
1142.60 0.3063704
1142.70 0.3063016
1142.80 0.3062329
1142.90 0.3061641
1143.00 0.3060954
1143.10 0.3060267
1143.20 0.305958
1143.30 0.3058894
1143.40 0.3058207
1143.50 0.3057521
1143.60 0.3056835
1143.70 0.3056149
1143.80 0.3055463
1143.90 0.3054778
1144.00 0.3054092
1144.10 0.3053407
1144.20 0.3052722
1144.30 0.3052038
1144.40 0.3051353
1144.50 0.3050669
1144.60 0.3049985
1144.70 0.3049301
1144.80 0.3048617
1144.90 0.3047933
1145.00 0.304725
1145.10 0.3046567
1145.20 0.3045884
1145.30 0.3045201
1145.40 0.3044518
1145.50 0.3043836
1145.60 0.3043154
1145.70 0.3042471
1145.80 0.304179
1145.90 0.3041108
1146.00 0.3040426
1146.10 0.3039745
1146.20 0.3039064
1146.30 0.3038383
1146.40 0.3037702
1146.50 0.3037022
1146.60 0.3036341
1146.70 0.3035661
1146.80 0.3034981
1146.90 0.3034303
1147.00 0.3033623
1147.10 0.3032943
1147.20 0.3032264
1147.30 0.3031585
1147.40 0.3030906
1147.50 0.3030228
1147.60 0.3029549
1147.70 0.3028871
1147.80 0.3028193
1147.90 0.3027515
1148.00 0.3026837
1148.10 0.302616
1148.20 0.3025482
1148.30 0.3024805
1148.40 0.3024128
1148.50 0.3023453
1148.60 0.3022776
1148.70 0.30221
1148.80 0.3021423
1148.90 0.3020747
1149.00 0.3020071
1149.10 0.3019396
1149.20 0.301872
1149.30 0.3018045
1149.40 0.301737
1149.50 0.3016695
1149.60 0.301602
1149.70 0.3015347
1149.80 0.3014673
1149.90 0.3013998
1150.00 0.3013324
1150.10 0.3012651
1150.20 0.3011977
1150.30 0.3011304
1150.40 0.301063
1150.50 0.3009957
1150.60 0.3009285
1150.70 0.3008611
1150.80 0.3007936
1150.90 0.3007262
1151.00 0.3006587
1151.10 0.3005913
1151.20 0.3005239
1151.30 0.3004566
1151.40 0.3003892
1151.50 0.300322
1151.60 0.3002547
1151.70 0.3001874
1151.80 0.3001201
1151.90 0.3000529
1152.00 0.2999856
1152.10 0.2999184
1152.20 0.2998512
1152.30 0.299784
1152.40 0.299717
1152.50 0.2996498
1152.60 0.2995827
1152.70 0.2995156
1152.80 0.2994485
1152.90 0.2993814
1153.00 0.2993144
1153.10 0.2992475
1153.20 0.2991804
1153.30 0.2991135
1153.40 0.2990465
1153.50 0.2989795
1153.60 0.2989126
1153.70 0.2988457
1153.80 0.2987789
1153.90 0.298712
1154.00 0.2986451
1154.10 0.2985783
1154.20 0.2985114
1154.30 0.2984446
1154.40 0.2983779
1154.50 0.2983112
1154.60 0.2982444
1154.70 0.2981777
1154.80 0.298111
1154.90 0.2980444
1155.00 0.2979777
1155.10 0.297911
1155.20 0.2978444
1155.30 0.2977777
1155.40 0.2977111
1155.50 0.2976446
1155.60 0.2975781
1155.70 0.2975115
1155.80 0.297445
1155.90 0.2973785
1156.00 0.2973121
1156.10 0.2972456
1156.20 0.2971791
1156.30 0.2971127
1156.40 0.2970463
1156.50 0.29698
1156.60 0.2969136
1156.70 0.2968472
1156.80 0.2967809
1156.90 0.2967146
1157.00 0.2966484
1157.10 0.2965821
1157.20 0.2965158
1157.30 0.2964495
1157.40 0.2963834
1157.50 0.2963172
1157.60 0.296251
1157.70 0.2961848
1157.80 0.2961186
1157.90 0.2960526
1158.00 0.2959865
1158.10 0.2959204
1158.20 0.2958543
1158.30 0.2957883
1158.40 0.2957223
1158.50 0.2956562
1158.60 0.2955902
1158.70 0.2955243
1158.80 0.2954583
1158.90 0.2953924
1159.00 0.2953264
1159.10 0.2952606
1159.20 0.2951947
1159.30 0.2951288
1159.40 0.2950629
1159.50 0.2949972
1159.60 0.2949313
1159.70 0.2948655
1159.80 0.2947998
1159.90 0.2947341
1160.00 0.2946683
1160.10 0.2946025
1160.20 0.2945369
1160.30 0.2944712
1160.40 0.2944055
1160.50 0.2943399
1160.60 0.2942743
1160.70 0.2942087
1160.80 0.294143
1160.90 0.2940775
1161.00 0.294012
1161.10 0.2939464
1161.20 0.293881
1161.30 0.2938154
1161.40 0.2937499
1161.50 0.2936844
1161.60 0.2936191
1161.70 0.2935536
1161.80 0.2934882
1161.90 0.2934228
1162.00 0.2933574
1162.10 0.2932921
1162.20 0.2932262
1162.30 0.2931603
1162.40 0.2930945
1162.50 0.2930286
1162.60 0.2929628
1162.70 0.292897
1162.80 0.2928312
1162.90 0.2927654
1163.00 0.2926997
1163.10 0.292634
1163.20 0.2925683
1163.30 0.2925026
1163.40 0.2924369
1163.50 0.2923713
1163.60 0.2923056
1163.70 0.29224
1163.80 0.2921744
1163.90 0.2921088
1164.00 0.2920433
1164.10 0.2919777
1164.20 0.2919122
1164.30 0.2918466
1164.40 0.2917812
1164.50 0.2917157
1164.60 0.2916502
1164.70 0.2915849
1164.80 0.2915194
1164.90 0.291454
1165.00 0.2913887
1165.10 0.2913233
1165.20 0.2912579
1165.30 0.2911927
1165.40 0.2911273
1165.50 0.291062
1165.60 0.2909967
1165.70 0.2909315
1165.80 0.2908662
1165.90 0.290801
1166.00 0.2907359
1166.10 0.2906706
1166.20 0.2906054
1166.30 0.2905404
1166.40 0.2904752
1166.50 0.2904101
1166.60 0.290345
1166.70 0.2902799
1166.80 0.2902149
1166.90 0.2901499
1167.00 0.2900848
1167.10 0.2900199
1167.20 0.2899549
1167.30 0.2898899
1167.40 0.289825
1167.50 0.28976
1167.60 0.2896951
1167.70 0.2896302
1167.80 0.2895653
1167.90 0.2895004
1168.00 0.2894363
1168.10 0.2893721
1168.20 0.2893081
1168.30 0.2892439
1168.40 0.2891799
1168.50 0.2891158
1168.60 0.2890518
1168.70 0.2889878
1168.80 0.2889237
1168.90 0.2888598
1169.00 0.2887958
1169.10 0.2887319
1169.20 0.2886679
1169.30 0.288604
1169.40 0.2885401
1169.50 0.2884763
1169.60 0.2884124
1169.70 0.2883486
1169.80 0.2882847
1169.90 0.288221
1170.00 0.2881571
1170.10 0.2880933
1170.20 0.2880296
1170.30 0.2879658
1170.40 0.2879022
1170.50 0.2878384
1170.60 0.2877748
1170.70 0.2877111
1170.80 0.2876475
1170.90 0.2875838
1171.00 0.2875202
1171.10 0.2874566
1171.20 0.287393
1171.30 0.2873294
1171.40 0.2872659
1171.50 0.2872024
1171.60 0.2871389
1171.70 0.2870754
1171.80 0.2870119
1171.90 0.2869484
1172.00 0.286885
1172.10 0.2868216
1172.20 0.2867582
1172.30 0.2866948
1172.40 0.2866315
1172.50 0.2865681
1172.60 0.2865048
1172.70 0.2864414
1172.80 0.2863781
1172.90 0.2863149
1173.00 0.2862516
1173.10 0.2861884
1173.20 0.2861251
1173.30 0.2860619
1173.40 0.2859987
1173.50 0.2859356
1173.60 0.2858724
1173.70 0.2858093
1173.80 0.2857457
1173.90 0.2856821
1174.00 0.2856184
1174.10 0.2855548
1174.20 0.2854912
1174.30 0.2854276
1174.40 0.285364
1174.50 0.2853005
1174.60 0.285237
1174.70 0.2851735
1174.80 0.28511
1174.90 0.2850465
1175.00 0.284983
1175.10 0.2849197
1175.20 0.2848562
1175.30 0.2847928
1175.40 0.2847294
1175.50 0.2846661
1175.60 0.2846027
1175.70 0.2845394
1175.80 0.284476
1175.90 0.2844128
1176.00 0.2843494
1176.10 0.2842862
1176.20 0.284223
1176.30 0.2841597
1176.40 0.2840966
1176.50 0.2840333
1176.60 0.2839702
1176.70 0.283907
1176.80 0.2838439
1176.90 0.2837807
1177.00 0.2837176
1177.10 0.2836545
1177.20 0.2835915
1177.30 0.2835284
1177.40 0.2834654
1177.50 0.2834024
1177.60 0.2833393
1177.70 0.2832764
1177.80 0.2832134
1177.90 0.2831505
1178.00 0.2830875
1178.10 0.2830246
1178.20 0.2829616
1178.30 0.2828988
1178.40 0.282836
1178.50 0.2827731
1178.60 0.2827103
1178.70 0.2826474
1178.80 0.2825847
1178.90 0.2825218
1179.00 0.2824591
1179.10 0.2823964
1179.20 0.2823336
1179.30 0.282271
1179.40 0.2822082
1179.50 0.2821456
1179.60 0.282083
1179.70 0.2820203
1179.80 0.2819577
1179.90 0.281895
1180.00 0.2818325
1180.10 0.2817699
1180.20 0.2817073
1180.30 0.2816448
1180.40 0.2815823
1180.50 0.2815198
1180.60 0.2814574
1180.70 0.2813948
1180.80 0.2813324
1180.90 0.2812699
1181.00 0.2812075
1181.10 0.2811452
1181.20 0.2810827
1181.30 0.2810204
1181.40 0.280958
1181.50 0.2808957
1181.60 0.2808334
1181.70 0.2807711
1181.80 0.2807088
1181.90 0.2806466
1182.00 0.2805843
1182.10 0.2805221
1182.20 0.2804599
1182.30 0.2803977
1182.40 0.2803355
1182.50 0.2802733
1182.60 0.2802112
1182.70 0.2801491
1182.80 0.280087
1182.90 0.2800249
1183.00 0.2799629
1183.10 0.2799007
1183.20 0.2798387
1183.30 0.2797767
1183.40 0.2797147
1183.50 0.2796527
1183.60 0.2795908
1183.70 0.2795288
1183.80 0.2794669
1183.90 0.279405
1184.00 0.279343
1184.10 0.2792811
1184.20 0.2792193
1184.30 0.2791574
1184.40 0.2790956
1184.50 0.2790338
1184.60 0.2789719
1184.70 0.2789102
1184.80 0.2788484
1184.90 0.2787866
1185.00 0.2787249
1185.10 0.2786632
1185.20 0.2786014
1185.30 0.2785398
1185.40 0.2784781
1185.50 0.2784162
1185.60 0.2783541
1185.70 0.278292
1185.80 0.2782298
1185.90 0.2781678
1186.00 0.2781057
1186.10 0.2780436
1186.20 0.2779816
1186.30 0.2779196
1186.40 0.2778575
1186.50 0.2777955
1186.60 0.2777336
1186.70 0.2776715
1186.80 0.2776096
1186.90 0.2775477
1187.00 0.2774857
1187.10 0.2774239
1187.20 0.277362
1187.30 0.2773001
1187.40 0.2772383
1187.50 0.2771765
1187.60 0.2771146
1187.70 0.2770529
1187.80 0.2769911
1187.90 0.2769293
1188.00 0.2768676
1188.10 0.2768059
1188.20 0.2767441
1188.30 0.2766824
1188.40 0.2766208
1188.50 0.276559
1188.60 0.2764974
1188.70 0.2764358
1188.80 0.2763743
1188.90 0.2763126
1189.00 0.276251
1189.10 0.2761895
1189.20 0.2761279
1189.30 0.2760664
1189.40 0.2760049
1189.50 0.2759434
1189.60 0.2758819
1189.70 0.2758205
1189.80 0.2757591
1189.90 0.2756976
1190.00 0.2756362
1190.10 0.2755748
1190.20 0.2755134
1190.30 0.2754521
1190.40 0.2753907
1190.50 0.2753294
1190.60 0.2752681
1190.70 0.2752068
1190.80 0.2751455
1190.90 0.2750843
1191.00 0.275023
1191.10 0.2749618
1191.20 0.2749006
1191.30 0.2748395
1191.40 0.2747783
1191.50 0.2747178
1191.60 0.2746574
1191.70 0.2745969
1191.80 0.2745365
1191.90 0.2744759
1192.00 0.2744155
1192.10 0.2743551
1192.20 0.2742948
1192.30 0.2742344
1192.40 0.274174
1192.50 0.2741137
1192.60 0.2740534
1192.70 0.2739931
1192.80 0.2739328
1192.90 0.2738725
1193.00 0.2738122
1193.10 0.273752
1193.20 0.2736918
1193.30 0.2736316
1193.40 0.2735714
1193.50 0.2735112
1193.60 0.273451
1193.70 0.2733908
1193.80 0.2733307
1193.90 0.2732706
1194.00 0.2732106
1194.10 0.2731505
1194.20 0.2730904
1194.30 0.2730303
1194.40 0.2729703
1194.50 0.2729103
1194.60 0.2728503
1194.70 0.2727903
1194.80 0.2727304
1194.90 0.2726705
1195.00 0.2726104
1195.10 0.2725505
1195.20 0.2724907
1195.30 0.2724308
1195.40 0.2723709
1195.50 0.2723111
1195.60 0.2722513
1195.70 0.2721915
1195.80 0.2721317
1195.90 0.2720718
1196.00 0.272012
1196.10 0.2719523
1196.20 0.2718926
1196.30 0.2718329
1196.40 0.2717732
1196.50 0.2717135
1196.60 0.2716538
1196.70 0.2715942
1196.80 0.2715344
1196.90 0.2714748
1197.00 0.2714152
1197.10 0.2713556
1197.20 0.2712961
1197.30 0.2712365
1197.40 0.2711766
1197.50 0.2711165
1197.60 0.2710566
1197.70 0.2709965
1197.80 0.2709365
1197.90 0.2708766
1198.00 0.2708166
1198.10 0.2707567
1198.20 0.2706968
1198.30 0.2706369
1198.40 0.270577
1198.50 0.2705171
1198.60 0.2704573
1198.70 0.2703975
1198.80 0.2703377
1198.90 0.2702779
1199.00 0.2702181
1199.10 0.2701583
1199.20 0.2700986
1199.30 0.2700388
1199.40 0.2699791
1199.50 0.2699194
1199.60 0.2698597
1199.70 0.2698
1199.80 0.2697404
1199.90 0.2696808
1200.00 0.2696212
